#  E (eV)   dos(E)     Int dos(E) EFermi =    2.155 eV
 -10.000  0.6060E-05  0.3030E-07
  -9.995  0.5344E-05  0.5702E-07
  -9.990  0.4710E-05  0.8057E-07
  -9.985  0.4149E-05  0.1013E-06
  -9.980  0.3652E-05  0.1196E-06
  -9.975  0.3213E-05  0.1356E-06
  -9.970  0.2825E-05  0.1498E-06
  -9.965  0.2482E-05  0.1622E-06
  -9.960  0.2179E-05  0.1731E-06
  -9.955  0.1912E-05  0.1826E-06
  -9.950  0.1676E-05  0.1910E-06
  -9.945  0.1469E-05  0.1984E-06
  -9.940  0.1287E-05  0.2048E-06
  -9.935  0.1126E-05  0.2104E-06
  -9.930  0.9849E-06  0.2153E-06
  -9.925  0.8609E-06  0.2196E-06
  -9.920  0.7520E-06  0.2234E-06
  -9.915  0.6565E-06  0.2267E-06
  -9.910  0.5727E-06  0.2296E-06
  -9.905  0.4993E-06  0.2320E-06
  -9.900  0.4350E-06  0.2342E-06
  -9.895  0.3788E-06  0.2361E-06
  -9.890  0.3296E-06  0.2378E-06
  -9.885  0.2866E-06  0.2392E-06
  -9.880  0.2491E-06  0.2404E-06
  -9.875  0.2163E-06  0.2415E-06
  -9.870  0.1877E-06  0.2425E-06
  -9.865  0.1628E-06  0.2433E-06
  -9.860  0.1412E-06  0.2440E-06
  -9.855  0.1223E-06  0.2446E-06
  -9.850  0.1058E-06  0.2451E-06
  -9.845  0.9157E-07  0.2456E-06
  -9.840  0.7916E-07  0.2460E-06
  -9.835  0.6840E-07  0.2463E-06
  -9.830  0.5906E-07  0.2466E-06
  -9.825  0.5096E-07  0.2469E-06
  -9.820  0.4394E-07  0.2471E-06
  -9.815  0.3787E-07  0.2473E-06
  -9.810  0.3261E-07  0.2474E-06
  -9.805  0.2807E-07  0.2476E-06
  -9.800  0.2414E-07  0.2477E-06
  -9.795  0.2075E-07  0.2478E-06
  -9.790  0.1782E-07  0.2479E-06
  -9.785  0.1530E-07  0.2480E-06
  -9.780  0.1312E-07  0.2480E-06
  -9.775  0.1125E-07  0.2481E-06
  -9.770  0.9639E-08  0.2481E-06
  -9.765  0.8253E-08  0.2482E-06
  -9.760  0.7061E-08  0.2482E-06
  -9.755  0.6038E-08  0.2483E-06
  -9.750  0.5159E-08  0.2483E-06
  -9.745  0.4406E-08  0.2483E-06
  -9.740  0.3760E-08  0.2483E-06
  -9.735  0.3207E-08  0.2483E-06
  -9.730  0.2733E-08  0.2483E-06
  -9.725  0.2328E-08  0.2484E-06
  -9.720  0.1981E-08  0.2484E-06
  -9.715  0.1685E-08  0.2484E-06
  -9.710  0.1433E-08  0.2484E-06
  -9.705  0.1217E-08  0.2484E-06
  -9.700  0.1033E-08  0.2484E-06
  -9.695  0.8765E-09  0.2484E-06
  -9.690  0.7432E-09  0.2484E-06
  -9.685  0.6297E-09  0.2484E-06
  -9.680  0.5332E-09  0.2484E-06
  -9.675  0.4511E-09  0.2484E-06
  -9.670  0.3815E-09  0.2484E-06
  -9.665  0.3224E-09  0.2484E-06
  -9.660  0.2723E-09  0.2484E-06
  -9.655  0.2298E-09  0.2484E-06
  -9.650  0.1938E-09  0.2484E-06
  -9.645  0.1633E-09  0.2484E-06
  -9.640  0.1376E-09  0.2484E-06
  -9.635  0.1158E-09  0.2484E-06
  -9.630  0.9743E-10  0.2484E-06
  -9.625  0.8190E-10  0.2484E-06
  -9.620  0.6881E-10  0.2484E-06
  -9.615  0.5777E-10  0.2484E-06
  -9.610  0.4847E-10  0.2484E-06
  -9.605  0.4064E-10  0.2484E-06
  -9.600  0.3405E-10  0.2484E-06
  -9.595  0.2851E-10  0.2484E-06
  -9.590  0.2386E-10  0.2484E-06
  -9.585  0.1995E-10  0.2484E-06
  -9.580  0.1667E-10  0.2484E-06
  -9.575  0.1392E-10  0.2484E-06
  -9.570  0.1162E-10  0.2484E-06
  -9.565  0.9693E-11  0.2484E-06
  -9.560  0.8079E-11  0.2484E-06
  -9.555  0.6730E-11  0.2484E-06
  -9.550  0.5602E-11  0.2484E-06
  -9.545  0.4660E-11  0.2484E-06
  -9.540  0.3874E-11  0.2484E-06
  -9.535  0.3218E-11  0.2484E-06
  -9.530  0.2672E-11  0.2484E-06
  -9.525  0.2217E-11  0.2484E-06
  -9.520  0.1838E-11  0.2484E-06
  -9.515  0.1523E-11  0.2484E-06
  -9.510  0.1261E-11  0.2484E-06
  -9.505  0.1043E-11  0.2484E-06
  -9.500  0.8629E-12  0.2484E-06
  -9.495  0.7131E-12  0.2484E-06
  -9.490  0.5889E-12  0.2484E-06
  -9.485  0.4860E-12  0.2484E-06
  -9.480  0.4009E-12  0.2484E-06
  -9.475  0.3304E-12  0.2484E-06
  -9.470  0.2721E-12  0.2484E-06
  -9.465  0.2240E-12  0.2484E-06
  -9.460  0.1843E-12  0.2484E-06
  -9.455  0.1515E-12  0.2484E-06
  -9.450  0.1244E-12  0.2484E-06
  -9.445  0.1022E-12  0.2484E-06
  -9.440  0.8381E-13  0.2484E-06
  -9.435  0.6871E-13  0.2484E-06
  -9.430  0.5630E-13  0.2484E-06
  -9.425  0.4610E-13  0.2484E-06
  -9.420  0.3772E-13  0.2484E-06
  -9.415  0.3084E-13  0.2484E-06
  -9.410  0.2520E-13  0.2484E-06
  -9.405  0.2058E-13  0.2484E-06
  -9.400  0.1680E-13  0.2484E-06
  -9.395  0.1370E-13  0.2484E-06
  -9.390  0.1116E-13  0.2484E-06
  -9.385  0.9093E-14  0.2484E-06
  -9.380  0.7401E-14  0.2484E-06
  -9.375  0.6020E-14  0.2484E-06
  -9.370  0.4893E-14  0.2484E-06
  -9.365  0.3975E-14  0.2484E-06
  -9.360  0.3227E-14  0.2484E-06
  -9.355  0.2618E-14  0.2484E-06
  -9.350  0.2122E-14  0.2484E-06
  -9.345  0.1719E-14  0.2484E-06
  -9.340  0.1392E-14  0.2484E-06
  -9.335  0.1126E-14  0.2484E-06
  -9.330  0.9106E-15  0.2484E-06
  -9.325  0.7358E-15  0.2484E-06
  -9.320  0.5942E-15  0.2484E-06
  -9.315  0.4794E-15  0.2484E-06
  -9.310  0.3866E-15  0.2484E-06
  -9.305  0.3116E-15  0.2484E-06
  -9.300  0.2509E-15  0.2484E-06
  -9.295  0.2019E-15  0.2484E-06
  -9.290  0.1624E-15  0.2484E-06
  -9.285  0.1305E-15  0.2484E-06
  -9.280  0.1049E-15  0.2484E-06
  -9.275  0.8416E-16  0.2484E-06
  -9.270  0.6751E-16  0.2484E-06
  -9.265  0.5412E-16  0.2484E-06
  -9.260  0.4335E-16  0.2484E-06
  -9.255  0.3471E-16  0.2484E-06
  -9.250  0.2777E-16  0.2484E-06
  -9.245  0.2220E-16  0.2484E-06
  -9.240  0.1773E-16  0.2484E-06
  -9.235  0.1416E-16  0.2484E-06
  -9.230  0.1130E-16  0.2484E-06
  -9.225  0.9009E-17  0.2484E-06
  -9.220  0.7178E-17  0.2484E-06
  -9.215  0.5716E-17  0.2484E-06
  -9.210  0.4549E-17  0.2484E-06
  -9.205  0.3617E-17  0.2484E-06
  -9.200  0.2875E-17  0.2484E-06
  -9.195  0.2283E-17  0.2484E-06
  -9.190  0.1812E-17  0.2484E-06
  -9.185  0.1437E-17  0.2484E-06
  -9.180  0.1139E-17  0.2484E-06
  -9.175  0.9022E-18  0.2484E-06
  -9.170  0.7142E-18  0.2484E-06
  -9.165  0.5649E-18  0.2484E-06
  -9.160  0.4466E-18  0.2484E-06
  -9.155  0.3528E-18  0.2484E-06
  -9.150  0.2785E-18  0.2484E-06
  -9.145  0.2197E-18  0.2484E-06
  -9.140  0.1732E-18  0.2484E-06
  -9.135  0.1365E-18  0.2484E-06
  -9.130  0.1074E-18  0.2484E-06
  -9.125  0.8454E-19  0.2484E-06
  -9.120  0.6648E-19  0.2484E-06
  -9.115  0.5224E-19  0.2484E-06
  -9.110  0.4102E-19  0.2484E-06
  -9.105  0.3219E-19  0.2484E-06
  -9.100  0.2524E-19  0.2484E-06
  -9.095  0.1978E-19  0.2484E-06
  -9.090  0.1549E-19  0.2484E-06
  -9.085  0.1212E-19  0.2484E-06
  -9.080  0.9483E-20  0.2484E-06
  -9.075  0.7412E-20  0.2484E-06
  -9.070  0.5789E-20  0.2484E-06
  -9.065  0.4519E-20  0.2484E-06
  -9.060  0.3525E-20  0.2484E-06
  -9.055  0.2748E-20  0.2484E-06
  -9.050  0.2140E-20  0.2484E-06
  -9.045  0.1666E-20  0.2484E-06
  -9.040  0.1296E-20  0.2484E-06
  -9.035  0.1008E-20  0.2484E-06
  -9.030  0.7829E-21  0.2484E-06
  -9.025  0.6079E-21  0.2484E-06
  -9.020  0.4716E-21  0.2484E-06
  -9.015  0.3657E-21  0.2484E-06
  -9.010  0.2834E-21  0.2484E-06
  -9.005  0.2194E-21  0.2484E-06
  -9.000  0.1698E-21  0.2484E-06
  -8.995  0.1313E-21  0.2484E-06
  -8.990  0.1015E-21  0.2484E-06
  -8.985  0.7835E-22  0.2484E-06
  -8.980  0.6047E-22  0.2484E-06
  -8.975  0.4664E-22  0.2484E-06
  -8.970  0.3594E-22  0.2484E-06
  -8.965  0.2768E-22  0.2484E-06
  -8.960  0.2131E-22  0.2484E-06
  -8.955  0.1639E-22  0.2484E-06
  -8.950  0.1260E-22  0.2484E-06
  -8.945  0.9678E-23  0.2484E-06
  -8.940  0.7429E-23  0.2484E-06
  -8.935  0.5699E-23  0.2484E-06
  -8.930  0.4369E-23  0.2484E-06
  -8.925  0.3347E-23  0.2484E-06
  -8.920  0.2562E-23  0.2484E-06
  -8.915  0.1960E-23  0.2484E-06
  -8.910  0.1499E-23  0.2484E-06
  -8.905  0.1145E-23  0.2484E-06
  -8.900  0.8745E-24  0.2484E-06
  -8.895  0.6672E-24  0.2484E-06
  -8.890  0.5088E-24  0.2484E-06
  -8.885  0.3877E-24  0.2484E-06
  -8.880  0.2952E-24  0.2484E-06
  -8.875  0.2247E-24  0.2484E-06
  -8.870  0.1709E-24  0.2484E-06
  -8.865  0.1299E-24  0.2484E-06
  -8.860  0.9863E-25  0.2484E-06
  -8.855  0.7485E-25  0.2484E-06
  -8.850  0.5677E-25  0.2484E-06
  -8.845  0.4303E-25  0.2484E-06
  -8.840  0.3259E-25  0.2484E-06
  -8.835  0.2467E-25  0.2484E-06
  -8.830  0.1866E-25  0.2484E-06
  -8.825  0.1411E-25  0.2484E-06
  -8.820  0.1066E-25  0.2484E-06
  -8.815  0.8046E-26  0.2484E-06
  -8.810  0.6070E-26  0.2484E-06
  -8.805  0.4576E-26  0.2484E-06
  -8.800  0.3448E-26  0.2484E-06
  -8.795  0.2596E-26  0.2484E-06
  -8.790  0.1953E-26  0.2484E-06
  -8.785  0.1468E-26  0.2484E-06
  -8.780  0.1103E-26  0.2484E-06
  -8.775  0.8285E-27  0.2484E-06
  -8.770  0.6217E-27  0.2484E-06
  -8.765  0.4662E-27  0.2484E-06
  -8.760  0.3494E-27  0.2484E-06
  -8.755  0.2616E-27  0.2484E-06
  -8.750  0.1958E-27  0.2484E-06
  -8.745  0.1464E-27  0.2484E-06
  -8.740  0.1095E-27  0.2484E-06
  -8.735  0.8175E-28  0.2484E-06
  -8.730  0.6101E-28  0.2484E-06
  -8.725  0.4551E-28  0.2484E-06
  -8.720  0.3392E-28  0.2484E-06
  -8.715  0.2527E-28  0.2484E-06
  -8.710  0.1881E-28  0.2484E-06
  -8.705  0.1399E-28  0.2484E-06
  -8.700  0.1040E-28  0.2484E-06
  -8.695  0.7727E-29  0.2484E-06
  -8.690  0.5737E-29  0.2484E-06
  -8.685  0.4256E-29  0.2484E-06
  -8.680  0.3155E-29  0.2484E-06
  -8.675  0.2338E-29  0.2484E-06
  -8.670  0.1731E-29  0.2484E-06
  -8.665  0.1281E-29  0.2484E-06
  -8.660  0.9471E-30  0.2484E-06
  -8.655  0.6998E-30  0.2484E-06
  -8.650  0.5168E-30  0.2484E-06
  -8.645  0.3813E-30  0.2484E-06
  -8.640  0.2812E-30  0.2484E-06
  -8.635  0.2072E-30  0.2484E-06
  -8.630  0.1526E-30  0.2484E-06
  -8.625  0.1123E-30  0.2484E-06
  -8.620  0.8261E-31  0.2484E-06
  -8.615  0.6072E-31  0.2484E-06
  -8.610  0.4459E-31  0.2484E-06
  -8.605  0.3273E-31  0.2484E-06
  -8.600  0.2401E-31  0.2484E-06
  -8.595  0.1760E-31  0.2484E-06
  -8.590  0.1289E-31  0.2484E-06
  -8.585  0.9437E-32  0.2484E-06
  -8.580  0.6903E-32  0.2484E-06
  -8.575  0.5047E-32  0.2484E-06
  -8.570  0.3687E-32  0.2484E-06
  -8.565  0.2692E-32  0.2484E-06
  -8.560  0.1964E-32  0.2484E-06
  -8.555  0.1432E-32  0.2484E-06
  -8.550  0.1043E-32  0.2484E-06
  -8.545  0.7596E-33  0.2484E-06
  -8.540  0.5527E-33  0.2484E-06
  -8.535  0.4019E-33  0.2484E-06
  -8.530  0.2920E-33  0.2484E-06
  -8.525  0.2121E-33  0.2484E-06
  -8.520  0.1539E-33  0.2484E-06
  -8.515  0.1116E-33  0.2484E-06
  -8.510  0.8087E-34  0.2484E-06
  -8.505  0.5857E-34  0.2484E-06
  -8.500  0.4239E-34  0.2484E-06
  -8.495  0.3066E-34  0.2484E-06
  -8.490  0.2216E-34  0.2484E-06
  -8.485  0.1600E-34  0.2484E-06
  -8.480  0.1155E-34  0.2484E-06
  -8.475  0.8333E-35  0.2484E-06
  -8.470  0.6006E-35  0.2484E-06
  -8.465  0.4327E-35  0.2484E-06
  -8.460  0.3115E-35  0.2484E-06
  -8.455  0.2241E-35  0.2484E-06
  -8.450  0.1611E-35  0.2484E-06
  -8.445  0.1157E-35  0.2484E-06
  -8.440  0.8308E-36  0.2484E-06
  -8.435  0.5960E-36  0.2484E-06
  -8.430  0.4273E-36  0.2484E-06
  -8.425  0.3062E-36  0.2484E-06
  -8.420  0.2192E-36  0.2484E-06
  -8.415  0.1569E-36  0.2484E-06
  -8.410  0.1122E-36  0.2484E-06
  -8.405  0.8015E-37  0.2484E-06
  -8.400  0.5723E-37  0.2484E-06
  -8.395  0.4084E-37  0.2484E-06
  -8.390  0.2913E-37  0.2484E-06
  -8.385  0.2076E-37  0.2484E-06
  -8.380  0.1478E-37  0.2484E-06
  -8.375  0.1052E-37  0.2484E-06
  -8.370  0.7483E-38  0.2484E-06
  -8.365  0.5318E-38  0.2484E-06
  -8.360  0.3777E-38  0.2484E-06
  -8.355  0.2681E-38  0.2484E-06
  -8.350  0.1902E-38  0.2484E-06
  -8.345  0.1348E-38  0.2484E-06
  -8.340  0.9549E-39  0.2484E-06
  -8.335  0.6760E-39  0.2484E-06
  -8.330  0.4782E-39  0.2484E-06
  -8.325  0.3380E-39  0.2484E-06
  -8.320  0.2388E-39  0.2484E-06
  -8.315  0.1686E-39  0.2484E-06
  -8.310  0.1190E-39  0.2484E-06
  -8.305  0.8387E-40  0.2484E-06
  -8.300  0.5909E-40  0.2484E-06
  -8.295  0.4161E-40  0.2484E-06
  -8.290  0.2927E-40  0.2484E-06
  -8.285  0.2058E-40  0.2484E-06
  -8.280  0.1446E-40  0.2484E-06
  -8.275  0.1016E-40  0.2484E-06
  -8.270  0.7127E-41  0.2484E-06
  -8.265  0.4998E-41  0.2484E-06
  -8.260  0.3503E-41  0.2484E-06
  -8.255  0.2453E-41  0.2484E-06
  -8.250  0.1717E-41  0.2484E-06
  -8.245  0.1201E-41  0.2484E-06
  -8.240  0.8392E-42  0.2484E-06
  -8.235  0.5861E-42  0.2484E-06
  -8.230  0.4091E-42  0.2484E-06
  -8.225  0.2854E-42  0.2484E-06
  -8.220  0.1989E-42  0.2484E-06
  -8.215  0.1386E-42  0.2484E-06
  -8.210  0.9645E-43  0.2484E-06
  -8.205  0.6709E-43  0.2484E-06
  -8.200  0.4664E-43  0.2484E-06
  -8.195  0.3240E-43  0.2484E-06
  -8.190  0.2249E-43  0.2484E-06
  -8.185  0.1561E-43  0.2484E-06
  -8.180  0.1082E-43  0.2484E-06
  -8.175  0.7496E-44  0.2484E-06
  -8.170  0.5190E-44  0.2484E-06
  -8.165  0.3591E-44  0.2484E-06
  -8.160  0.2483E-44  0.2484E-06
  -8.155  0.1716E-44  0.2484E-06
  -8.150  0.1185E-44  0.2484E-06
  -8.145  0.8176E-45  0.2484E-06
  -8.140  0.5638E-45  0.2484E-06
  -8.135  0.3885E-45  0.2484E-06
  -8.130  0.2676E-45  0.2484E-06
  -8.125  0.1841E-45  0.2484E-06
  -8.120  0.1266E-45  0.2484E-06
  -8.115  0.8704E-46  0.2484E-06
  -8.110  0.5978E-46  0.2484E-06
  -8.105  0.4103E-46  0.2484E-06
  -8.100  0.2814E-46  0.2484E-06
  -8.095  0.1929E-46  0.2484E-06
  -8.090  0.1321E-46  0.2484E-06
  -8.085  0.9044E-47  0.2484E-06
  -8.080  0.6187E-47  0.2484E-06
  -8.075  0.4229E-47  0.2484E-06
  -8.070  0.2889E-47  0.2484E-06
  -8.065  0.1972E-47  0.2484E-06
  -8.060  0.1346E-47  0.2484E-06
  -8.055  0.9174E-48  0.2484E-06
  -8.050  0.6250E-48  0.2484E-06
  -8.045  0.4255E-48  0.2484E-06
  -8.040  0.2895E-48  0.2484E-06
  -8.035  0.1969E-48  0.2484E-06
  -8.030  0.1338E-48  0.2484E-06
  -8.025  0.9083E-49  0.2484E-06
  -8.020  0.6163E-49  0.2484E-06
  -8.015  0.4179E-49  0.2484E-06
  -8.010  0.2832E-49  0.2484E-06
  -8.005  0.1918E-49  0.2484E-06
  -8.000  0.1298E-49  0.2484E-06
  -7.995  0.8777E-50  0.2484E-06
  -7.990  0.5932E-50  0.2484E-06
  -7.985  0.4006E-50  0.2484E-06
  -7.980  0.2704E-50  0.2484E-06
  -7.975  0.1824E-50  0.2484E-06
  -7.970  0.1229E-50  0.2484E-06
  -7.965  0.8280E-51  0.2484E-06
  -7.960  0.5573E-51  0.2484E-06
  -7.955  0.3749E-51  0.2484E-06
  -7.950  0.2520E-51  0.2484E-06
  -7.945  0.1693E-51  0.2484E-06
  -7.940  0.1136E-51  0.2484E-06
  -7.935  0.7624E-52  0.2484E-06
  -7.930  0.5111E-52  0.2484E-06
  -7.925  0.3424E-52  0.2484E-06
  -7.920  0.2292E-52  0.2484E-06
  -7.915  0.1534E-52  0.2484E-06
  -7.910  0.1025E-52  0.2484E-06
  -7.905  0.6852E-53  0.2484E-06
  -7.900  0.4575E-53  0.2484E-06
  -7.895  0.3053E-53  0.2484E-06
  -7.890  0.2035E-53  0.2484E-06
  -7.885  0.1356E-53  0.2484E-06
  -7.880  0.9032E-54  0.2484E-06
  -7.875  0.6010E-54  0.2484E-06
  -7.870  0.3997E-54  0.2484E-06
  -7.865  0.2656E-54  0.2484E-06
  -7.860  0.1764E-54  0.2484E-06
  -7.855  0.1171E-54  0.2484E-06
  -7.850  0.7765E-55  0.2484E-06
  -7.845  0.5147E-55  0.2484E-06
  -7.840  0.3409E-55  0.2484E-06
  -7.835  0.2256E-55  0.2484E-06
  -7.830  0.1492E-55  0.2484E-06
  -7.825  0.9865E-56  0.2484E-06
  -7.820  0.6516E-56  0.2484E-06
  -7.815  0.4301E-56  0.2484E-06
  -7.810  0.2838E-56  0.2484E-06
  -7.805  0.1871E-56  0.2484E-06
  -7.800  0.1232E-56  0.2484E-06
  -7.795  0.8113E-57  0.2484E-06
  -7.790  0.5337E-57  0.2484E-06
  -7.785  0.3509E-57  0.2484E-06
  -7.780  0.2306E-57  0.2484E-06
  -7.775  0.1514E-57  0.2484E-06
  -7.770  0.9932E-58  0.2484E-06
  -7.765  0.6512E-58  0.2484E-06
  -7.760  0.4267E-58  0.2484E-06
  -7.755  0.2794E-58  0.2484E-06
  -7.750  0.1828E-58  0.2484E-06
  -7.745  0.1196E-58  0.2484E-06
  -7.740  0.7814E-59  0.2484E-06
  -7.735  0.5103E-59  0.2484E-06
  -7.730  0.3330E-59  0.2484E-06
  -7.725  0.2172E-59  0.2484E-06
  -7.720  0.1415E-59  0.2484E-06
  -7.715  0.9218E-60  0.2484E-06
  -7.710  0.6000E-60  0.2484E-06
  -7.705  0.3902E-60  0.2484E-06
  -7.700  0.2537E-60  0.2484E-06
  -7.695  0.1648E-60  0.2484E-06
  -7.690  0.1069E-60  0.2484E-06
  -7.685  0.6937E-61  0.2484E-06
  -7.680  0.4497E-61  0.2484E-06
  -7.675  0.2913E-61  0.2484E-06
  -7.670  0.1886E-61  0.2484E-06
  -7.665  0.1220E-61  0.2484E-06
  -7.660  0.7887E-62  0.2484E-06
  -7.655  0.5096E-62  0.2484E-06
  -7.650  0.3290E-62  0.2484E-06
  -7.645  0.2123E-62  0.2484E-06
  -7.640  0.1369E-62  0.2484E-06
  -7.635  0.8818E-63  0.2484E-06
  -7.630  0.5678E-63  0.2484E-06
  -7.625  0.3653E-63  0.2484E-06
  -7.620  0.2349E-63  0.2484E-06
  -7.615  0.1510E-63  0.2484E-06
  -7.610  0.9694E-64  0.2484E-06
  -7.605  0.6221E-64  0.2484E-06
  -7.600  0.3989E-64  0.2484E-06
  -7.595  0.2557E-64  0.2484E-06
  -7.590  0.1637E-64  0.2484E-06
  -7.585  0.1048E-64  0.2484E-06
  -7.580  0.6702E-65  0.2484E-06
  -7.575  0.4284E-65  0.2484E-06
  -7.570  0.2736E-65  0.2484E-06
  -7.565  0.1746E-65  0.2484E-06
  -7.560  0.1114E-65  0.2484E-06
  -7.555  0.7100E-66  0.2484E-06
  -7.550  0.4523E-66  0.2484E-06
  -7.545  0.2879E-66  0.2484E-06
  -7.540  0.1832E-66  0.2484E-06
  -7.535  0.1164E-66  0.2484E-06
  -7.530  0.7397E-67  0.2484E-06
  -7.525  0.4696E-67  0.2484E-06
  -7.520  0.2979E-67  0.2484E-06
  -7.515  0.1889E-67  0.2484E-06
  -7.510  0.1197E-67  0.2484E-06
  -7.505  0.7577E-68  0.2484E-06
  -7.500  0.4794E-68  0.2484E-06
  -7.495  0.3031E-68  0.2484E-06
  -7.490  0.1915E-68  0.2484E-06
  -7.485  0.1209E-68  0.2484E-06
  -7.480  0.7632E-69  0.2484E-06
  -7.475  0.4813E-69  0.2484E-06
  -7.470  0.3033E-69  0.2484E-06
  -7.465  0.1910E-69  0.2484E-06
  -7.460  0.1202E-69  0.2484E-06
  -7.455  0.7559E-70  0.2484E-06
  -7.450  0.4751E-70  0.2484E-06
  -7.445  0.2984E-70  0.2484E-06
  -7.440  0.1873E-70  0.2484E-06
  -7.435  0.1175E-70  0.2484E-06
  -7.430  0.7362E-71  0.2484E-06
  -7.425  0.4611E-71  0.2484E-06
  -7.420  0.2886E-71  0.2484E-06
  -7.415  0.1806E-71  0.2484E-06
  -7.410  0.1129E-71  0.2484E-06
  -7.405  0.7050E-72  0.2484E-06
  -7.400  0.4401E-72  0.2484E-06
  -7.395  0.2746E-72  0.2484E-06
  -7.390  0.1712E-72  0.2484E-06
  -7.385  0.1066E-72  0.2484E-06
  -7.380  0.6639E-73  0.2484E-06
  -7.375  0.4131E-73  0.2484E-06
  -7.370  0.2568E-73  0.2484E-06
  -7.365  0.1596E-73  0.2484E-06
  -7.360  0.9908E-74  0.2484E-06
  -7.355  0.6148E-74  0.2484E-06
  -7.350  0.3812E-74  0.2484E-06
  -7.345  0.2362E-74  0.2484E-06
  -7.340  0.1463E-74  0.2484E-06
  -7.335  0.9052E-75  0.2484E-06
  -7.330  0.5598E-75  0.2484E-06
  -7.325  0.3460E-75  0.2484E-06
  -7.320  0.2137E-75  0.2484E-06
  -7.315  0.1319E-75  0.2484E-06
  -7.310  0.8132E-76  0.2484E-06
  -7.305  0.5012E-76  0.2484E-06
  -7.300  0.3087E-76  0.2484E-06
  -7.295  0.1900E-76  0.2484E-06
  -7.290  0.1169E-76  0.2484E-06
  -7.285  0.7184E-77  0.2484E-06
  -7.280  0.4413E-77  0.2484E-06
  -7.275  0.2709E-77  0.2484E-06
  -7.270  0.1662E-77  0.2484E-06
  -7.265  0.1019E-77  0.2484E-06
  -7.260  0.6240E-78  0.2484E-06
  -7.255  0.3820E-78  0.2484E-06
  -7.250  0.2337E-78  0.2484E-06
  -7.245  0.1429E-78  0.2484E-06
  -7.240  0.8729E-79  0.2484E-06
  -7.235  0.5330E-79  0.2484E-06
  -7.230  0.3252E-79  0.2484E-06
  -7.225  0.1983E-79  0.2484E-06
  -7.220  0.1208E-79  0.2484E-06
  -7.215  0.7356E-80  0.2484E-06
  -7.210  0.4476E-80  0.2484E-06
  -7.205  0.2722E-80  0.2484E-06
  -7.200  0.1654E-80  0.2484E-06
  -7.195  0.1005E-80  0.2484E-06
  -7.190  0.6098E-81  0.2484E-06
  -7.185  0.3699E-81  0.2484E-06
  -7.180  0.2243E-81  0.2484E-06
  -7.175  0.1359E-81  0.2484E-06
  -7.170  0.8238E-82  0.2484E-06
  -7.165  0.4993E-82  0.2484E-06
  -7.160  0.3028E-82  0.2484E-06
  -7.155  0.1839E-82  0.2484E-06
  -7.150  0.1121E-82  0.2484E-06
  -7.145  0.6865E-83  0.2484E-06
  -7.140  0.4242E-83  0.2484E-06
  -7.135  0.2660E-83  0.2484E-06
  -7.130  0.1706E-83  0.2484E-06
  -7.125  0.1131E-83  0.2484E-06
  -7.120  0.7851E-84  0.2484E-06
  -7.115  0.5768E-84  0.2484E-06
  -7.110  0.4515E-84  0.2484E-06
  -7.105  0.3763E-84  0.2484E-06
  -7.100  0.3311E-84  0.2484E-06
  -7.095  0.3040E-84  0.2484E-06
  -7.090  0.2878E-84  0.2484E-06
  -7.085  0.2781E-84  0.2484E-06
  -7.080  0.2723E-84  0.2484E-06
  -7.075  0.2688E-84  0.2484E-06
  -7.070  0.2668E-84  0.2484E-06
  -7.065  0.2655E-84  0.2484E-06
  -7.060  0.2648E-84  0.2484E-06
  -7.055  0.2644E-84  0.2484E-06
  -7.050  0.2642E-84  0.2484E-06
  -7.045  0.2641E-84  0.2484E-06
  -7.040  0.2640E-84  0.2484E-06
  -7.035  0.2640E-84  0.2484E-06
  -7.030  0.2640E-84  0.2484E-06
  -7.025  0.2640E-84  0.2484E-06
  -7.020  0.2640E-84  0.2484E-06
  -7.015  0.2641E-84  0.2484E-06
  -7.010  0.2643E-84  0.2484E-06
  -7.005  0.2645E-84  0.2484E-06
  -7.000  0.2650E-84  0.2484E-06
  -6.995  0.2657E-84  0.2484E-06
  -6.990  0.2670E-84  0.2484E-06
  -6.985  0.2691E-84  0.2484E-06
  -6.980  0.2725E-84  0.2484E-06
  -6.975  0.2784E-84  0.2484E-06
  -6.970  0.2880E-84  0.2484E-06
  -6.965  0.3042E-84  0.2484E-06
  -6.960  0.3312E-84  0.2484E-06
  -6.955  0.3761E-84  0.2484E-06
  -6.950  0.4507E-84  0.2484E-06
  -6.945  0.5748E-84  0.2484E-06
  -6.940  0.7808E-84  0.2484E-06
  -6.935  0.1123E-83  0.2484E-06
  -6.930  0.1690E-83  0.2484E-06
  -6.925  0.2629E-83  0.2484E-06
  -6.920  0.4185E-83  0.2484E-06
  -6.915  0.6761E-83  0.2484E-06
  -6.910  0.1102E-82  0.2484E-06
  -6.905  0.1806E-82  0.2484E-06
  -6.900  0.2969E-82  0.2484E-06
  -6.895  0.4888E-82  0.2484E-06
  -6.890  0.8053E-82  0.2484E-06
  -6.885  0.1327E-81  0.2484E-06
  -6.880  0.2186E-81  0.2484E-06
  -6.875  0.3601E-81  0.2484E-06
  -6.870  0.5928E-81  0.2484E-06
  -6.865  0.9754E-81  0.2484E-06
  -6.860  0.1604E-80  0.2484E-06
  -6.855  0.2635E-80  0.2484E-06
  -6.850  0.4328E-80  0.2484E-06
  -6.845  0.7103E-80  0.2484E-06
  -6.840  0.1165E-79  0.2484E-06
  -6.835  0.1909E-79  0.2484E-06
  -6.830  0.3127E-79  0.2484E-06
  -6.825  0.5118E-79  0.2484E-06
  -6.820  0.8371E-79  0.2484E-06
  -6.815  0.1368E-78  0.2484E-06
  -6.810  0.2235E-78  0.2484E-06
  -6.805  0.3648E-78  0.2484E-06
  -6.800  0.5951E-78  0.2484E-06
  -6.795  0.9701E-78  0.2484E-06
  -6.790  0.1580E-77  0.2484E-06
  -6.785  0.2573E-77  0.2484E-06
  -6.780  0.4185E-77  0.2484E-06
  -6.775  0.6805E-77  0.2484E-06
  -6.770  0.1106E-76  0.2484E-06
  -6.765  0.1795E-76  0.2484E-06
  -6.760  0.2912E-76  0.2484E-06
  -6.755  0.4722E-76  0.2484E-06
  -6.750  0.7651E-76  0.2484E-06
  -6.745  0.1239E-75  0.2484E-06
  -6.740  0.2005E-75  0.2484E-06
  -6.735  0.3241E-75  0.2484E-06
  -6.730  0.5238E-75  0.2484E-06
  -6.725  0.8459E-75  0.2484E-06
  -6.720  0.1365E-74  0.2484E-06
  -6.715  0.2201E-74  0.2484E-06
  -6.710  0.3548E-74  0.2484E-06
  -6.705  0.5714E-74  0.2484E-06
  -6.700  0.9196E-74  0.2484E-06
  -6.695  0.1479E-73  0.2484E-06
  -6.690  0.2377E-73  0.2484E-06
  -6.685  0.3818E-73  0.2484E-06
  -6.680  0.6129E-73  0.2484E-06
  -6.675  0.9831E-73  0.2484E-06
  -6.670  0.1576E-72  0.2484E-06
  -6.665  0.2524E-72  0.2484E-06
  -6.660  0.4041E-72  0.2484E-06
  -6.655  0.6464E-72  0.2484E-06
  -6.650  0.1033E-71  0.2484E-06
  -6.645  0.1651E-71  0.2484E-06
  -6.640  0.2636E-71  0.2484E-06
  -6.635  0.4205E-71  0.2484E-06
  -6.630  0.6705E-71  0.2484E-06
  -6.625  0.1068E-70  0.2484E-06
  -6.620  0.1701E-70  0.2484E-06
  -6.615  0.2706E-70  0.2484E-06
  -6.610  0.4303E-70  0.2484E-06
  -6.605  0.6838E-70  0.2484E-06
  -6.600  0.1086E-69  0.2484E-06
  -6.595  0.1723E-69  0.2484E-06
  -6.590  0.2732E-69  0.2484E-06
  -6.585  0.4330E-69  0.2484E-06
  -6.580  0.6857E-69  0.2484E-06
  -6.575  0.1085E-68  0.2484E-06
  -6.570  0.1716E-68  0.2484E-06
  -6.565  0.2713E-68  0.2484E-06
  -6.560  0.4284E-68  0.2484E-06
  -6.555  0.6762E-68  0.2484E-06
  -6.550  0.1067E-67  0.2484E-06
  -6.545  0.1681E-67  0.2484E-06
  -6.540  0.2648E-67  0.2484E-06
  -6.535  0.4168E-67  0.2484E-06
  -6.530  0.6557E-67  0.2484E-06
  -6.525  0.1031E-66  0.2484E-06
  -6.520  0.1619E-66  0.2484E-06
  -6.515  0.2542E-66  0.2484E-06
  -6.510  0.3988E-66  0.2484E-06
  -6.505  0.6252E-66  0.2484E-06
  -6.500  0.9795E-66  0.2484E-06
  -6.495  0.1534E-65  0.2484E-06
  -6.490  0.2399E-65  0.2484E-06
  -6.485  0.3752E-65  0.2484E-06
  -6.480  0.5862E-65  0.2484E-06
  -6.475  0.9153E-65  0.2484E-06
  -6.470  0.1428E-64  0.2484E-06
  -6.465  0.2227E-64  0.2484E-06
  -6.460  0.3470E-64  0.2484E-06
  -6.455  0.5404E-64  0.2484E-06
  -6.450  0.8410E-64  0.2484E-06
  -6.445  0.1308E-63  0.2484E-06
  -6.440  0.2033E-63  0.2484E-06
  -6.435  0.3157E-63  0.2484E-06
  -6.430  0.4900E-63  0.2484E-06
  -6.425  0.7599E-63  0.2484E-06
  -6.420  0.1178E-62  0.2484E-06
  -6.415  0.1824E-62  0.2484E-06
  -6.410  0.2824E-62  0.2484E-06
  -6.405  0.4368E-62  0.2484E-06
  -6.400  0.6752E-62  0.2484E-06
  -6.395  0.1043E-61  0.2484E-06
  -6.390  0.1610E-61  0.2484E-06
  -6.385  0.2484E-61  0.2484E-06
  -6.380  0.3829E-61  0.2484E-06
  -6.375  0.5899E-61  0.2484E-06
  -6.370  0.9082E-61  0.2484E-06
  -6.365  0.1397E-60  0.2484E-06
  -6.360  0.2148E-60  0.2484E-06
  -6.355  0.3301E-60  0.2484E-06
  -6.350  0.5068E-60  0.2484E-06
  -6.345  0.7776E-60  0.2484E-06
  -6.340  0.1192E-59  0.2484E-06
  -6.335  0.1827E-59  0.2484E-06
  -6.330  0.2798E-59  0.2484E-06
  -6.325  0.4281E-59  0.2484E-06
  -6.320  0.6547E-59  0.2484E-06
  -6.315  0.1001E-58  0.2484E-06
  -6.310  0.1528E-58  0.2484E-06
  -6.305  0.2332E-58  0.2484E-06
  -6.300  0.3556E-58  0.2484E-06
  -6.295  0.5420E-58  0.2484E-06
  -6.290  0.8256E-58  0.2484E-06
  -6.285  0.1257E-57  0.2484E-06
  -6.280  0.1911E-57  0.2484E-06
  -6.275  0.2905E-57  0.2484E-06
  -6.270  0.4413E-57  0.2484E-06
  -6.265  0.6699E-57  0.2484E-06
  -6.260  0.1016E-56  0.2484E-06
  -6.255  0.1540E-56  0.2484E-06
  -6.250  0.2334E-56  0.2484E-06
  -6.245  0.3533E-56  0.2484E-06
  -6.240  0.5345E-56  0.2484E-06
  -6.235  0.8080E-56  0.2484E-06
  -6.230  0.1221E-55  0.2484E-06
  -6.225  0.1843E-55  0.2484E-06
  -6.220  0.2781E-55  0.2484E-06
  -6.215  0.4193E-55  0.2484E-06
  -6.210  0.6318E-55  0.2484E-06
  -6.205  0.9514E-55  0.2484E-06
  -6.200  0.1432E-54  0.2484E-06
  -6.195  0.2153E-54  0.2484E-06
  -6.190  0.3235E-54  0.2484E-06
  -6.185  0.4858E-54  0.2484E-06
  -6.180  0.7291E-54  0.2484E-06
  -6.175  0.1093E-53  0.2484E-06
  -6.170  0.1639E-53  0.2484E-06
  -6.165  0.2454E-53  0.2484E-06
  -6.160  0.3673E-53  0.2484E-06
  -6.155  0.5494E-53  0.2484E-06
  -6.150  0.8211E-53  0.2484E-06
  -6.145  0.1227E-52  0.2484E-06
  -6.140  0.1831E-52  0.2484E-06
  -6.135  0.2731E-52  0.2484E-06
  -6.130  0.4071E-52  0.2484E-06
  -6.125  0.6064E-52  0.2484E-06
  -6.120  0.9028E-52  0.2484E-06
  -6.115  0.1343E-51  0.2484E-06
  -6.110  0.1997E-51  0.2484E-06
  -6.105  0.2966E-51  0.2484E-06
  -6.100  0.4404E-51  0.2484E-06
  -6.095  0.6534E-51  0.2484E-06
  -6.090  0.9687E-51  0.2484E-06
  -6.085  0.1435E-50  0.2484E-06
  -6.080  0.2125E-50  0.2484E-06
  -6.075  0.3145E-50  0.2484E-06
  -6.070  0.4650E-50  0.2484E-06
  -6.065  0.6871E-50  0.2484E-06
  -6.060  0.1015E-49  0.2484E-06
  -6.055  0.1497E-49  0.2484E-06
  -6.050  0.2208E-49  0.2484E-06
  -6.045  0.3254E-49  0.2484E-06
  -6.040  0.4793E-49  0.2484E-06
  -6.035  0.7054E-49  0.2484E-06
  -6.030  0.1037E-48  0.2484E-06
  -6.025  0.1525E-48  0.2484E-06
  -6.020  0.2240E-48  0.2484E-06
  -6.015  0.3287E-48  0.2484E-06
  -6.010  0.4822E-48  0.2484E-06
  -6.005  0.7068E-48  0.2484E-06
  -6.000  0.1035E-47  0.2484E-06
  -5.995  0.1516E-47  0.2484E-06
  -5.990  0.2217E-47  0.2484E-06
  -5.985  0.3241E-47  0.2484E-06
  -5.980  0.4735E-47  0.2484E-06
  -5.975  0.6913E-47  0.2484E-06
  -5.970  0.1009E-46  0.2484E-06
  -5.965  0.1470E-46  0.2484E-06
  -5.960  0.2142E-46  0.2484E-06
  -5.955  0.3119E-46  0.2484E-06
  -5.950  0.4539E-46  0.2484E-06
  -5.945  0.6600E-46  0.2484E-06
  -5.940  0.9590E-46  0.2484E-06
  -5.935  0.1393E-45  0.2484E-06
  -5.930  0.2021E-45  0.2484E-06
  -5.925  0.2931E-45  0.2484E-06
  -5.920  0.4247E-45  0.2484E-06
  -5.915  0.6150E-45  0.2484E-06
  -5.910  0.8901E-45  0.2484E-06
  -5.905  0.1287E-44  0.2484E-06
  -5.900  0.1861E-44  0.2484E-06
  -5.895  0.2687E-44  0.2484E-06
  -5.890  0.3879E-44  0.2484E-06
  -5.885  0.5594E-44  0.2484E-06
  -5.880  0.8064E-44  0.2484E-06
  -5.875  0.1162E-43  0.2484E-06
  -5.870  0.1672E-43  0.2484E-06
  -5.865  0.2405E-43  0.2484E-06
  -5.860  0.3458E-43  0.2484E-06
  -5.855  0.4967E-43  0.2484E-06
  -5.850  0.7131E-43  0.2484E-06
  -5.845  0.1023E-42  0.2484E-06
  -5.840  0.1467E-42  0.2484E-06
  -5.835  0.2101E-42  0.2484E-06
  -5.830  0.3009E-42  0.2484E-06
  -5.825  0.4305E-42  0.2484E-06
  -5.820  0.6155E-42  0.2484E-06
  -5.815  0.8795E-42  0.2484E-06
  -5.810  0.1256E-41  0.2484E-06
  -5.805  0.1792E-41  0.2484E-06
  -5.800  0.2556E-41  0.2484E-06
  -5.795  0.3642E-41  0.2484E-06
  -5.790  0.5186E-41  0.2484E-06
  -5.785  0.7381E-41  0.2484E-06
  -5.780  0.1050E-40  0.2484E-06
  -5.775  0.1492E-40  0.2484E-06
  -5.770  0.2119E-40  0.2484E-06
  -5.765  0.3007E-40  0.2484E-06
  -5.760  0.4266E-40  0.2484E-06
  -5.755  0.6046E-40  0.2484E-06
  -5.750  0.8564E-40  0.2484E-06
  -5.745  0.1212E-39  0.2484E-06
  -5.740  0.1715E-39  0.2484E-06
  -5.735  0.2424E-39  0.2484E-06
  -5.730  0.3424E-39  0.2484E-06
  -5.725  0.4834E-39  0.2484E-06
  -5.720  0.6820E-39  0.2484E-06
  -5.715  0.9615E-39  0.2484E-06
  -5.710  0.1355E-38  0.2484E-06
  -5.705  0.1907E-38  0.2484E-06
  -5.700  0.2684E-38  0.2484E-06
  -5.695  0.3773E-38  0.2484E-06
  -5.690  0.5302E-38  0.2484E-06
  -5.685  0.7444E-38  0.2484E-06
  -5.680  0.1045E-37  0.2484E-06
  -5.675  0.1465E-37  0.2484E-06
  -5.670  0.2053E-37  0.2484E-06
  -5.665  0.2875E-37  0.2484E-06
  -5.660  0.4023E-37  0.2484E-06
  -5.655  0.5626E-37  0.2484E-06
  -5.650  0.7863E-37  0.2484E-06
  -5.645  0.1098E-36  0.2484E-06
  -5.640  0.1533E-36  0.2484E-06
  -5.635  0.2138E-36  0.2484E-06
  -5.630  0.2980E-36  0.2484E-06
  -5.625  0.4150E-36  0.2484E-06
  -5.620  0.5777E-36  0.2484E-06
  -5.615  0.8036E-36  0.2484E-06
  -5.610  0.1117E-35  0.2484E-06
  -5.605  0.1552E-35  0.2484E-06
  -5.600  0.2154E-35  0.2484E-06
  -5.595  0.2989E-35  0.2484E-06
  -5.590  0.4143E-35  0.2484E-06
  -5.585  0.5740E-35  0.2484E-06
  -5.580  0.7948E-35  0.2484E-06
  -5.575  0.1100E-34  0.2484E-06
  -5.570  0.1520E-34  0.2484E-06
  -5.565  0.2101E-34  0.2484E-06
  -5.560  0.2901E-34  0.2484E-06
  -5.555  0.4003E-34  0.2484E-06
  -5.550  0.5520E-34  0.2484E-06
  -5.545  0.7606E-34  0.2484E-06
  -5.540  0.1047E-33  0.2484E-06
  -5.535  0.1441E-33  0.2484E-06
  -5.530  0.1982E-33  0.2484E-06
  -5.525  0.2724E-33  0.2484E-06
  -5.520  0.3742E-33  0.2484E-06
  -5.515  0.5136E-33  0.2484E-06
  -5.510  0.7044E-33  0.2484E-06
  -5.505  0.9654E-33  0.2484E-06
  -5.500  0.1322E-32  0.2484E-06
  -5.495  0.1810E-32  0.2484E-06
  -5.490  0.2476E-32  0.2484E-06
  -5.485  0.3385E-32  0.2484E-06
  -5.480  0.4624E-32  0.2484E-06
  -5.475  0.6312E-32  0.2484E-06
  -5.470  0.8611E-32  0.2484E-06
  -5.465  0.1174E-31  0.2484E-06
  -5.460  0.1599E-31  0.2484E-06
  -5.455  0.2178E-31  0.2484E-06
  -5.450  0.2963E-31  0.2484E-06
  -5.445  0.4028E-31  0.2484E-06
  -5.440  0.5474E-31  0.2484E-06
  -5.435  0.7432E-31  0.2484E-06
  -5.430  0.1009E-30  0.2484E-06
  -5.425  0.1368E-30  0.2484E-06
  -5.420  0.1853E-30  0.2484E-06
  -5.415  0.2510E-30  0.2484E-06
  -5.410  0.3396E-30  0.2484E-06
  -5.405  0.4593E-30  0.2484E-06
  -5.400  0.6208E-30  0.2484E-06
  -5.395  0.8384E-30  0.2484E-06
  -5.390  0.1132E-29  0.2484E-06
  -5.385  0.1526E-29  0.2484E-06
  -5.380  0.2057E-29  0.2484E-06
  -5.375  0.2771E-29  0.2484E-06
  -5.370  0.3730E-29  0.2484E-06
  -5.365  0.5017E-29  0.2484E-06
  -5.360  0.6744E-29  0.2484E-06
  -5.355  0.9060E-29  0.2484E-06
  -5.350  0.1216E-28  0.2484E-06
  -5.345  0.1632E-28  0.2484E-06
  -5.340  0.2188E-28  0.2484E-06
  -5.335  0.2931E-28  0.2484E-06
  -5.330  0.3924E-28  0.2484E-06
  -5.325  0.5250E-28  0.2484E-06
  -5.320  0.7020E-28  0.2484E-06
  -5.315  0.9380E-28  0.2484E-06
  -5.310  0.1252E-27  0.2484E-06
  -5.305  0.1671E-27  0.2484E-06
  -5.300  0.2229E-27  0.2484E-06
  -5.295  0.2970E-27  0.2484E-06
  -5.290  0.3955E-27  0.2484E-06
  -5.285  0.5264E-27  0.2484E-06
  -5.280  0.7000E-27  0.2484E-06
  -5.275  0.9304E-27  0.2484E-06
  -5.270  0.1236E-26  0.2484E-06
  -5.265  0.1640E-26  0.2484E-06
  -5.260  0.2175E-26  0.2484E-06
  -5.255  0.2883E-26  0.2484E-06
  -5.250  0.3819E-26  0.2484E-06
  -5.245  0.5056E-26  0.2484E-06
  -5.240  0.6688E-26  0.2484E-06
  -5.235  0.8841E-26  0.2484E-06
  -5.230  0.1168E-25  0.2484E-06
  -5.225  0.1542E-25  0.2484E-06
  -5.220  0.2034E-25  0.2484E-06
  -5.215  0.2682E-25  0.2484E-06
  -5.210  0.3533E-25  0.2484E-06
  -5.205  0.4652E-25  0.2484E-06
  -5.200  0.6121E-25  0.2484E-06
  -5.195  0.8049E-25  0.2484E-06
  -5.190  0.1058E-24  0.2484E-06
  -5.185  0.1389E-24  0.2484E-06
  -5.180  0.1822E-24  0.2484E-06
  -5.175  0.2390E-24  0.2484E-06
  -5.170  0.3132E-24  0.2484E-06
  -5.165  0.4101E-24  0.2484E-06
  -5.160  0.5368E-24  0.2484E-06
  -5.155  0.7020E-24  0.2484E-06
  -5.150  0.9175E-24  0.2484E-06
  -5.145  0.1198E-23  0.2484E-06
  -5.140  0.1564E-23  0.2484E-06
  -5.135  0.2040E-23  0.2484E-06
  -5.130  0.2659E-23  0.2484E-06
  -5.125  0.3464E-23  0.2484E-06
  -5.120  0.4510E-23  0.2484E-06
  -5.115  0.5866E-23  0.2484E-06
  -5.110  0.7626E-23  0.2484E-06
  -5.105  0.9908E-23  0.2484E-06
  -5.100  0.1286E-22  0.2484E-06
  -5.095  0.1669E-22  0.2484E-06
  -5.090  0.2164E-22  0.2484E-06
  -5.085  0.2804E-22  0.2484E-06
  -5.080  0.3630E-22  0.2484E-06
  -5.075  0.4697E-22  0.2484E-06
  -5.070  0.6074E-22  0.2484E-06
  -5.065  0.7848E-22  0.2484E-06
  -5.060  0.1013E-21  0.2484E-06
  -5.055  0.1308E-21  0.2484E-06
  -5.050  0.1687E-21  0.2484E-06
  -5.045  0.2174E-21  0.2484E-06
  -5.040  0.2800E-21  0.2484E-06
  -5.035  0.3603E-21  0.2484E-06
  -5.030  0.4634E-21  0.2484E-06
  -5.025  0.5957E-21  0.2484E-06
  -5.020  0.7651E-21  0.2484E-06
  -5.015  0.9821E-21  0.2484E-06
  -5.010  0.1260E-20  0.2484E-06
  -5.005  0.1615E-20  0.2484E-06
  -5.000  0.2069E-20  0.2484E-06
  -4.995  0.2648E-20  0.2484E-06
  -4.990  0.3388E-20  0.2484E-06
  -4.985  0.4332E-20  0.2484E-06
  -4.980  0.5534E-20  0.2484E-06
  -4.975  0.7066E-20  0.2484E-06
  -4.970  0.9015E-20  0.2484E-06
  -4.965  0.1149E-19  0.2484E-06
  -4.960  0.1465E-19  0.2484E-06
  -4.955  0.1865E-19  0.2484E-06
  -4.950  0.2373E-19  0.2484E-06
  -4.945  0.3018E-19  0.2484E-06
  -4.940  0.3835E-19  0.2484E-06
  -4.935  0.4871E-19  0.2484E-06
  -4.930  0.6182E-19  0.2484E-06
  -4.925  0.7840E-19  0.2484E-06
  -4.920  0.9936E-19  0.2484E-06
  -4.915  0.1259E-18  0.2484E-06
  -4.910  0.1593E-18  0.2484E-06
  -4.905  0.2015E-18  0.2484E-06
  -4.900  0.2547E-18  0.2484E-06
  -4.895  0.3217E-18  0.2484E-06
  -4.890  0.4061E-18  0.2484E-06
  -4.885  0.5123E-18  0.2484E-06
  -4.880  0.6459E-18  0.2484E-06
  -4.875  0.8137E-18  0.2484E-06
  -4.870  0.1024E-17  0.2484E-06
  -4.865  0.1289E-17  0.2484E-06
  -4.860  0.1621E-17  0.2484E-06
  -4.855  0.2036E-17  0.2484E-06
  -4.850  0.2557E-17  0.2484E-06
  -4.845  0.3208E-17  0.2484E-06
  -4.840  0.4023E-17  0.2484E-06
  -4.835  0.5041E-17  0.2484E-06
  -4.830  0.6313E-17  0.2484E-06
  -4.825  0.7901E-17  0.2484E-06
  -4.820  0.9881E-17  0.2484E-06
  -4.815  0.1235E-16  0.2484E-06
  -4.810  0.1542E-16  0.2484E-06
  -4.805  0.1925E-16  0.2484E-06
  -4.800  0.2401E-16  0.2484E-06
  -4.795  0.2993E-16  0.2484E-06
  -4.790  0.3728E-16  0.2484E-06
  -4.785  0.4641E-16  0.2484E-06
  -4.780  0.5773E-16  0.2484E-06
  -4.775  0.7177E-16  0.2484E-06
  -4.770  0.8916E-16  0.2484E-06
  -4.765  0.1107E-15  0.2484E-06
  -4.760  0.1373E-15  0.2484E-06
  -4.755  0.1703E-15  0.2484E-06
  -4.750  0.2110E-15  0.2484E-06
  -4.745  0.2612E-15  0.2484E-06
  -4.740  0.3232E-15  0.2484E-06
  -4.735  0.3997E-15  0.2484E-06
  -4.730  0.4939E-15  0.2484E-06
  -4.725  0.6099E-15  0.2484E-06
  -4.720  0.7527E-15  0.2484E-06
  -4.715  0.9283E-15  0.2484E-06
  -4.710  0.1144E-14  0.2484E-06
  -4.705  0.1409E-14  0.2484E-06
  -4.700  0.1734E-14  0.2484E-06
  -4.695  0.2133E-14  0.2484E-06
  -4.690  0.2622E-14  0.2484E-06
  -4.685  0.3221E-14  0.2484E-06
  -4.680  0.3953E-14  0.2484E-06
  -4.675  0.4850E-14  0.2484E-06
  -4.670  0.5945E-14  0.2484E-06
  -4.665  0.7283E-14  0.2484E-06
  -4.660  0.8917E-14  0.2484E-06
  -4.655  0.1091E-13  0.2484E-06
  -4.650  0.1334E-13  0.2484E-06
  -4.645  0.1630E-13  0.2484E-06
  -4.640  0.1990E-13  0.2484E-06
  -4.635  0.2428E-13  0.2484E-06
  -4.630  0.2961E-13  0.2484E-06
  -4.625  0.3608E-13  0.2484E-06
  -4.620  0.4394E-13  0.2484E-06
  -4.615  0.5347E-13  0.2484E-06
  -4.610  0.6503E-13  0.2484E-06
  -4.605  0.7904E-13  0.2484E-06
  -4.600  0.9600E-13  0.2484E-06
  -4.595  0.1165E-12  0.2484E-06
  -4.590  0.1413E-12  0.2484E-06
  -4.585  0.1713E-12  0.2484E-06
  -4.580  0.2075E-12  0.2484E-06
  -4.575  0.2512E-12  0.2484E-06
  -4.570  0.3039E-12  0.2484E-06
  -4.565  0.3674E-12  0.2484E-06
  -4.560  0.4438E-12  0.2484E-06
  -4.555  0.5358E-12  0.2484E-06
  -4.550  0.6465E-12  0.2484E-06
  -4.545  0.7795E-12  0.2484E-06
  -4.540  0.9392E-12  0.2484E-06
  -4.535  0.1131E-11  0.2484E-06
  -4.530  0.1361E-11  0.2484E-06
  -4.525  0.1637E-11  0.2484E-06
  -4.520  0.1967E-11  0.2484E-06
  -4.515  0.2362E-11  0.2484E-06
  -4.510  0.2835E-11  0.2484E-06
  -4.505  0.3400E-11  0.2484E-06
  -4.500  0.4075E-11  0.2484E-06
  -4.495  0.4881E-11  0.2484E-06
  -4.490  0.5842E-11  0.2484E-06
  -4.485  0.6988E-11  0.2484E-06
  -4.480  0.8353E-11  0.2484E-06
  -4.475  0.9979E-11  0.2484E-06
  -4.470  0.1191E-10  0.2484E-06
  -4.465  0.1421E-10  0.2484E-06
  -4.460  0.1694E-10  0.2484E-06
  -4.455  0.2019E-10  0.2484E-06
  -4.450  0.2404E-10  0.2484E-06
  -4.445  0.2860E-10  0.2484E-06
  -4.440  0.3401E-10  0.2484E-06
  -4.435  0.4041E-10  0.2484E-06
  -4.430  0.4799E-10  0.2484E-06
  -4.425  0.5695E-10  0.2484E-06
  -4.420  0.6754E-10  0.2484E-06
  -4.415  0.8004E-10  0.2484E-06
  -4.410  0.9480E-10  0.2484E-06
  -4.405  0.1122E-09  0.2484E-06
  -4.400  0.1327E-09  0.2484E-06
  -4.395  0.1569E-09  0.2484E-06
  -4.390  0.1853E-09  0.2484E-06
  -4.385  0.2188E-09  0.2484E-06
  -4.380  0.2581E-09  0.2484E-06
  -4.375  0.3042E-09  0.2484E-06
  -4.370  0.3584E-09  0.2484E-06
  -4.365  0.4220E-09  0.2484E-06
  -4.360  0.4965E-09  0.2484E-06
  -4.355  0.5838E-09  0.2484E-06
  -4.350  0.6860E-09  0.2484E-06
  -4.345  0.8056E-09  0.2485E-06
  -4.340  0.9453E-09  0.2485E-06
  -4.335  0.1109E-08  0.2485E-06
  -4.330  0.1299E-08  0.2485E-06
  -4.325  0.1522E-08  0.2485E-06
  -4.320  0.1781E-08  0.2485E-06
  -4.315  0.2083E-08  0.2485E-06
  -4.310  0.2435E-08  0.2485E-06
  -4.305  0.2844E-08  0.2485E-06
  -4.300  0.3320E-08  0.2485E-06
  -4.295  0.3873E-08  0.2486E-06
  -4.290  0.4515E-08  0.2486E-06
  -4.285  0.5260E-08  0.2486E-06
  -4.280  0.6124E-08  0.2486E-06
  -4.275  0.7125E-08  0.2487E-06
  -4.270  0.8284E-08  0.2487E-06
  -4.265  0.9626E-08  0.2488E-06
  -4.260  0.1118E-07  0.2488E-06
  -4.255  0.1297E-07  0.2489E-06
  -4.250  0.1504E-07  0.2490E-06
  -4.245  0.1743E-07  0.2490E-06
  -4.240  0.2019E-07  0.2491E-06
  -4.235  0.2337E-07  0.2493E-06
  -4.230  0.2703E-07  0.2494E-06
  -4.225  0.3124E-07  0.2496E-06
  -4.220  0.3609E-07  0.2497E-06
  -4.215  0.4166E-07  0.2499E-06
  -4.210  0.4806E-07  0.2502E-06
  -4.205  0.5541E-07  0.2505E-06
  -4.200  0.6383E-07  0.2508E-06
  -4.195  0.7350E-07  0.2511E-06
  -4.190  0.8456E-07  0.2516E-06
  -4.185  0.9724E-07  0.2521E-06
  -4.180  0.1117E-06  0.2526E-06
  -4.175  0.1283E-06  0.2533E-06
  -4.170  0.1472E-06  0.2540E-06
  -4.165  0.1689E-06  0.2548E-06
  -4.160  0.1935E-06  0.2558E-06
  -4.155  0.2217E-06  0.2569E-06
  -4.150  0.2537E-06  0.2582E-06
  -4.145  0.2902E-06  0.2596E-06
  -4.140  0.3318E-06  0.2613E-06
  -4.135  0.3790E-06  0.2632E-06
  -4.130  0.4327E-06  0.2653E-06
  -4.125  0.4936E-06  0.2678E-06
  -4.120  0.5628E-06  0.2706E-06
  -4.115  0.6412E-06  0.2738E-06
  -4.110  0.7301E-06  0.2775E-06
  -4.105  0.8308E-06  0.2816E-06
  -4.100  0.9448E-06  0.2864E-06
  -4.095  0.1074E-05  0.2917E-06
  -4.090  0.1219E-05  0.2978E-06
  -4.085  0.1384E-05  0.3048E-06
  -4.080  0.1570E-05  0.3126E-06
  -4.075  0.1779E-05  0.3215E-06
  -4.070  0.2015E-05  0.3316E-06
  -4.065  0.2281E-05  0.3430E-06
  -4.060  0.2581E-05  0.3559E-06
  -4.055  0.2918E-05  0.3705E-06
  -4.050  0.3296E-05  0.3870E-06
  -4.045  0.3722E-05  0.4056E-06
  -4.040  0.4200E-05  0.4266E-06
  -4.035  0.4736E-05  0.4502E-06
  -4.030  0.5336E-05  0.4769E-06
  -4.025  0.6010E-05  0.5070E-06
  -4.020  0.6763E-05  0.5408E-06
  -4.015  0.7607E-05  0.5788E-06
  -4.010  0.8550E-05  0.6216E-06
  -4.005  0.9604E-05  0.6696E-06
  -4.000  0.1078E-04  0.7235E-06
  -3.995  0.1209E-04  0.7840E-06
  -3.990  0.1356E-04  0.8517E-06
  -3.985  0.1519E-04  0.9277E-06
  -3.980  0.1701E-04  0.1013E-05
  -3.975  0.1903E-04  0.1108E-05
  -3.970  0.2128E-04  0.1214E-05
  -3.965  0.2378E-04  0.1333E-05
  -3.960  0.2655E-04  0.1466E-05
  -3.955  0.2963E-04  0.1614E-05
  -3.950  0.3305E-04  0.1779E-05
  -3.945  0.3684E-04  0.1964E-05
  -3.940  0.4103E-04  0.2169E-05
  -3.935  0.4568E-04  0.2397E-05
  -3.930  0.5082E-04  0.2651E-05
  -3.925  0.5649E-04  0.2934E-05
  -3.920  0.6277E-04  0.3247E-05
  -3.915  0.6969E-04  0.3596E-05
  -3.910  0.7733E-04  0.3983E-05
  -3.905  0.8575E-04  0.4411E-05
  -3.900  0.9503E-04  0.4886E-05
  -3.895  0.1052E-03  0.5413E-05
  -3.890  0.1165E-03  0.5995E-05
  -3.885  0.1288E-03  0.6639E-05
  -3.880  0.1424E-03  0.7351E-05
  -3.875  0.1573E-03  0.8138E-05
  -3.870  0.1737E-03  0.9007E-05
  -3.865  0.1916E-03  0.9965E-05
  -3.860  0.2113E-03  0.1102E-04
  -3.855  0.2328E-03  0.1218E-04
  -3.850  0.2563E-03  0.1347E-04
  -3.845  0.2821E-03  0.1488E-04
  -3.840  0.3103E-03  0.1643E-04
  -3.835  0.3410E-03  0.1813E-04
  -3.830  0.3745E-03  0.2001E-04
  -3.825  0.4111E-03  0.2206E-04
  -3.820  0.4510E-03  0.2432E-04
  -3.815  0.4944E-03  0.2679E-04
  -3.810  0.5417E-03  0.2950E-04
  -3.805  0.5931E-03  0.3246E-04
  -3.800  0.6490E-03  0.3571E-04
  -3.795  0.7098E-03  0.3926E-04
  -3.790  0.7757E-03  0.4314E-04
  -3.785  0.8472E-03  0.4737E-04
  -3.780  0.9247E-03  0.5199E-04
  -3.775  0.1009E-02  0.5704E-04
  -3.770  0.1100E-02  0.6254E-04
  -3.765  0.1198E-02  0.6853E-04
  -3.760  0.1304E-02  0.7505E-04
  -3.755  0.1419E-02  0.8214E-04
  -3.750  0.1543E-02  0.8986E-04
  -3.745  0.1677E-02  0.9824E-04
  -3.740  0.1821E-02  0.1073E-03
  -3.735  0.1977E-02  0.1172E-03
  -3.730  0.2144E-02  0.1280E-03
  -3.725  0.2324E-02  0.1396E-03
  -3.720  0.2518E-02  0.1522E-03
  -3.715  0.2727E-02  0.1658E-03
  -3.710  0.2950E-02  0.1806E-03
  -3.705  0.3190E-02  0.1965E-03
  -3.700  0.3448E-02  0.2137E-03
  -3.695  0.3724E-02  0.2324E-03
  -3.690  0.4019E-02  0.2525E-03
  -3.685  0.4335E-02  0.2741E-03
  -3.680  0.4674E-02  0.2975E-03
  -3.675  0.5035E-02  0.3227E-03
  -3.670  0.5422E-02  0.3498E-03
  -3.665  0.5834E-02  0.3790E-03
  -3.660  0.6274E-02  0.4103E-03
  -3.655  0.6743E-02  0.4440E-03
  -3.650  0.7243E-02  0.4803E-03
  -3.645  0.7775E-02  0.5191E-03
  -3.640  0.8341E-02  0.5608E-03
  -3.635  0.8943E-02  0.6056E-03
  -3.630  0.9583E-02  0.6535E-03
  -3.625  0.1026E-01  0.7048E-03
  -3.620  0.1098E-01  0.7597E-03
  -3.615  0.1175E-01  0.8184E-03
  -3.610  0.1256E-01  0.8812E-03
  -3.605  0.1341E-01  0.9483E-03
  -3.600  0.1432E-01  0.1020E-02
  -3.595  0.1528E-01  0.1096E-02
  -3.590  0.1630E-01  0.1178E-02
  -3.585  0.1737E-01  0.1265E-02
  -3.580  0.1850E-01  0.1357E-02
  -3.575  0.1969E-01  0.1456E-02
  -3.570  0.2095E-01  0.1560E-02
  -3.565  0.2227E-01  0.1672E-02
  -3.560  0.2367E-01  0.1790E-02
  -3.555  0.2514E-01  0.1916E-02
  -3.550  0.2668E-01  0.2049E-02
  -3.545  0.2830E-01  0.2191E-02
  -3.540  0.3000E-01  0.2341E-02
  -3.535  0.3179E-01  0.2500E-02
  -3.530  0.3366E-01  0.2668E-02
  -3.525  0.3563E-01  0.2846E-02
  -3.520  0.3768E-01  0.3034E-02
  -3.515  0.3983E-01  0.3234E-02
  -3.510  0.4208E-01  0.3444E-02
  -3.505  0.4443E-01  0.3666E-02
  -3.500  0.4689E-01  0.3901E-02
  -3.495  0.4946E-01  0.4148E-02
  -3.490  0.5213E-01  0.4409E-02
  -3.485  0.5492E-01  0.4683E-02
  -3.480  0.5782E-01  0.4972E-02
  -3.475  0.6085E-01  0.5277E-02
  -3.470  0.6400E-01  0.5597E-02
  -3.465  0.6727E-01  0.5933E-02
  -3.460  0.7067E-01  0.6286E-02
  -3.455  0.7420E-01  0.6657E-02
  -3.450  0.7787E-01  0.7047E-02
  -3.445  0.8167E-01  0.7455E-02
  -3.440  0.8561E-01  0.7883E-02
  -3.435  0.8970E-01  0.8332E-02
  -3.430  0.9392E-01  0.8801E-02
  -3.425  0.9830E-01  0.9293E-02
  -3.420  0.1028E+00  0.9807E-02
  -3.415  0.1075E+00  0.1034E-01
  -3.410  0.1123E+00  0.1091E-01
  -3.405  0.1173E+00  0.1149E-01
  -3.400  0.1224E+00  0.1210E-01
  -3.395  0.1277E+00  0.1274E-01
  -3.390  0.1332E+00  0.1341E-01
  -3.385  0.1388E+00  0.1410E-01
  -3.380  0.1446E+00  0.1483E-01
  -3.375  0.1505E+00  0.1558E-01
  -3.370  0.1566E+00  0.1636E-01
  -3.365  0.1629E+00  0.1718E-01
  -3.360  0.1693E+00  0.1802E-01
  -3.355  0.1759E+00  0.1890E-01
  -3.350  0.1826E+00  0.1981E-01
  -3.345  0.1896E+00  0.2076E-01
  -3.340  0.1967E+00  0.2175E-01
  -3.335  0.2039E+00  0.2276E-01
  -3.330  0.2113E+00  0.2382E-01
  -3.325  0.2189E+00  0.2492E-01
  -3.320  0.2267E+00  0.2605E-01
  -3.315  0.2346E+00  0.2722E-01
  -3.310  0.2427E+00  0.2844E-01
  -3.305  0.2509E+00  0.2969E-01
  -3.300  0.2593E+00  0.3099E-01
  -3.295  0.2678E+00  0.3233E-01
  -3.290  0.2765E+00  0.3371E-01
  -3.285  0.2854E+00  0.3514E-01
  -3.280  0.2944E+00  0.3661E-01
  -3.275  0.3035E+00  0.3812E-01
  -3.270  0.3128E+00  0.3969E-01
  -3.265  0.3223E+00  0.4130E-01
  -3.260  0.3318E+00  0.4296E-01
  -3.255  0.3416E+00  0.4467E-01
  -3.250  0.3514E+00  0.4642E-01
  -3.245  0.3614E+00  0.4823E-01
  -3.240  0.3715E+00  0.5009E-01
  -3.235  0.3817E+00  0.5200E-01
  -3.230  0.3921E+00  0.5396E-01
  -3.225  0.4025E+00  0.5597E-01
  -3.220  0.4131E+00  0.5804E-01
  -3.215  0.4238E+00  0.6015E-01
  -3.210  0.4346E+00  0.6233E-01
  -3.205  0.4455E+00  0.6455E-01
  -3.200  0.4564E+00  0.6684E-01
  -3.195  0.4675E+00  0.6917E-01
  -3.190  0.4787E+00  0.7157E-01
  -3.185  0.4899E+00  0.7402E-01
  -3.180  0.5013E+00  0.7652E-01
  -3.175  0.5127E+00  0.7909E-01
  -3.170  0.5241E+00  0.8171E-01
  -3.165  0.5357E+00  0.8439E-01
  -3.160  0.5473E+00  0.8712E-01
  -3.155  0.5590E+00  0.8992E-01
  -3.150  0.5707E+00  0.9277E-01
  -3.145  0.5825E+00  0.9568E-01
  -3.140  0.5943E+00  0.9865E-01
  -3.135  0.6061E+00  0.1017E+00
  -3.130  0.6180E+00  0.1048E+00
  -3.125  0.6300E+00  0.1079E+00
  -3.120  0.6419E+00  0.1111E+00
  -3.115  0.6539E+00  0.1144E+00
  -3.110  0.6659E+00  0.1177E+00
  -3.105  0.6780E+00  0.1211E+00
  -3.100  0.6900E+00  0.1246E+00
  -3.095  0.7021E+00  0.1281E+00
  -3.090  0.7142E+00  0.1317E+00
  -3.085  0.7263E+00  0.1353E+00
  -3.080  0.7384E+00  0.1390E+00
  -3.075  0.7505E+00  0.1427E+00
  -3.070  0.7626E+00  0.1465E+00
  -3.065  0.7747E+00  0.1504E+00
  -3.060  0.7867E+00  0.1544E+00
  -3.055  0.7988E+00  0.1583E+00
  -3.050  0.8109E+00  0.1624E+00
  -3.045  0.8229E+00  0.1665E+00
  -3.040  0.8350E+00  0.1707E+00
  -3.035  0.8470E+00  0.1749E+00
  -3.030  0.8590E+00  0.1792E+00
  -3.025  0.8710E+00  0.1836E+00
  -3.020  0.8830E+00  0.1880E+00
  -3.015  0.8949E+00  0.1925E+00
  -3.010  0.9069E+00  0.1970E+00
  -3.005  0.9188E+00  0.2016E+00
  -3.000  0.9307E+00  0.2062E+00
  -2.995  0.9425E+00  0.2110E+00
  -2.990  0.9544E+00  0.2157E+00
  -2.985  0.9662E+00  0.2206E+00
  -2.980  0.9780E+00  0.2255E+00
  -2.975  0.9897E+00  0.2304E+00
  -2.970  0.1001E+01  0.2354E+00
  -2.965  0.1013E+01  0.2405E+00
  -2.960  0.1025E+01  0.2456E+00
  -2.955  0.1037E+01  0.2508E+00
  -2.950  0.1048E+01  0.2560E+00
  -2.945  0.1060E+01  0.2613E+00
  -2.940  0.1071E+01  0.2667E+00
  -2.935  0.1083E+01  0.2721E+00
  -2.930  0.1094E+01  0.2776E+00
  -2.925  0.1106E+01  0.2831E+00
  -2.920  0.1118E+01  0.2887E+00
  -2.915  0.1129E+01  0.2943E+00
  -2.910  0.1141E+01  0.3000E+00
  -2.905  0.1152E+01  0.3058E+00
  -2.900  0.1163E+01  0.3116E+00
  -2.895  0.1175E+01  0.3175E+00
  -2.890  0.1186E+01  0.3234E+00
  -2.885  0.1198E+01  0.3294E+00
  -2.880  0.1209E+01  0.3354E+00
  -2.875  0.1221E+01  0.3416E+00
  -2.870  0.1232E+01  0.3477E+00
  -2.865  0.1244E+01  0.3539E+00
  -2.860  0.1255E+01  0.3602E+00
  -2.855  0.1267E+01  0.3665E+00
  -2.850  0.1278E+01  0.3729E+00
  -2.845  0.1290E+01  0.3794E+00
  -2.840  0.1301E+01  0.3859E+00
  -2.835  0.1313E+01  0.3925E+00
  -2.830  0.1324E+01  0.3991E+00
  -2.825  0.1336E+01  0.4058E+00
  -2.820  0.1348E+01  0.4125E+00
  -2.815  0.1359E+01  0.4193E+00
  -2.810  0.1371E+01  0.4261E+00
  -2.805  0.1383E+01  0.4331E+00
  -2.800  0.1395E+01  0.4400E+00
  -2.795  0.1407E+01  0.4471E+00
  -2.790  0.1419E+01  0.4542E+00
  -2.785  0.1431E+01  0.4613E+00
  -2.780  0.1443E+01  0.4685E+00
  -2.775  0.1455E+01  0.4758E+00
  -2.770  0.1468E+01  0.4831E+00
  -2.765  0.1480E+01  0.4905E+00
  -2.760  0.1492E+01  0.4980E+00
  -2.755  0.1505E+01  0.5055E+00
  -2.750  0.1518E+01  0.5131E+00
  -2.745  0.1530E+01  0.5208E+00
  -2.740  0.1543E+01  0.5285E+00
  -2.735  0.1556E+01  0.5363E+00
  -2.730  0.1570E+01  0.5441E+00
  -2.725  0.1583E+01  0.5520E+00
  -2.720  0.1596E+01  0.5600E+00
  -2.715  0.1610E+01  0.5681E+00
  -2.710  0.1623E+01  0.5762E+00
  -2.705  0.1637E+01  0.5844E+00
  -2.700  0.1651E+01  0.5926E+00
  -2.695  0.1665E+01  0.6010E+00
  -2.690  0.1680E+01  0.6093E+00
  -2.685  0.1694E+01  0.6178E+00
  -2.680  0.1709E+01  0.6264E+00
  -2.675  0.1724E+01  0.6350E+00
  -2.670  0.1739E+01  0.6437E+00
  -2.665  0.1754E+01  0.6524E+00
  -2.660  0.1769E+01  0.6613E+00
  -2.655  0.1785E+01  0.6702E+00
  -2.650  0.1801E+01  0.6792E+00
  -2.645  0.1817E+01  0.6883E+00
  -2.640  0.1833E+01  0.6975E+00
  -2.635  0.1849E+01  0.7067E+00
  -2.630  0.1866E+01  0.7161E+00
  -2.625  0.1883E+01  0.7255E+00
  -2.620  0.1900E+01  0.7350E+00
  -2.615  0.1917E+01  0.7445E+00
  -2.610  0.1934E+01  0.7542E+00
  -2.605  0.1952E+01  0.7640E+00
  -2.600  0.1970E+01  0.7738E+00
  -2.595  0.1988E+01  0.7838E+00
  -2.590  0.2006E+01  0.7938E+00
  -2.585  0.2025E+01  0.8039E+00
  -2.580  0.2043E+01  0.8141E+00
  -2.575  0.2062E+01  0.8245E+00
  -2.570  0.2081E+01  0.8349E+00
  -2.565  0.2100E+01  0.8454E+00
  -2.560  0.2120E+01  0.8560E+00
  -2.555  0.2139E+01  0.8667E+00
  -2.550  0.2159E+01  0.8774E+00
  -2.545  0.2179E+01  0.8883E+00
  -2.540  0.2199E+01  0.8993E+00
  -2.535  0.2219E+01  0.9104E+00
  -2.530  0.2240E+01  0.9216E+00
  -2.525  0.2260E+01  0.9329E+00
  -2.520  0.2281E+01  0.9443E+00
  -2.515  0.2301E+01  0.9558E+00
  -2.510  0.2322E+01  0.9675E+00
  -2.505  0.2343E+01  0.9792E+00
  -2.500  0.2364E+01  0.9910E+00
  -2.495  0.2385E+01  0.1003E+01
  -2.490  0.2406E+01  0.1015E+01
  -2.485  0.2428E+01  0.1027E+01
  -2.480  0.2449E+01  0.1039E+01
  -2.475  0.2470E+01  0.1052E+01
  -2.470  0.2491E+01  0.1064E+01
  -2.465  0.2512E+01  0.1077E+01
  -2.460  0.2533E+01  0.1089E+01
  -2.455  0.2554E+01  0.1102E+01
  -2.450  0.2575E+01  0.1115E+01
  -2.445  0.2596E+01  0.1128E+01
  -2.440  0.2617E+01  0.1141E+01
  -2.435  0.2638E+01  0.1154E+01
  -2.430  0.2658E+01  0.1168E+01
  -2.425  0.2679E+01  0.1181E+01
  -2.420  0.2699E+01  0.1194E+01
  -2.415  0.2719E+01  0.1208E+01
  -2.410  0.2739E+01  0.1222E+01
  -2.405  0.2759E+01  0.1236E+01
  -2.400  0.2778E+01  0.1249E+01
  -2.395  0.2797E+01  0.1263E+01
  -2.390  0.2816E+01  0.1277E+01
  -2.385  0.2834E+01  0.1292E+01
  -2.380  0.2852E+01  0.1306E+01
  -2.375  0.2870E+01  0.1320E+01
  -2.370  0.2887E+01  0.1335E+01
  -2.365  0.2904E+01  0.1349E+01
  -2.360  0.2921E+01  0.1364E+01
  -2.355  0.2937E+01  0.1379E+01
  -2.350  0.2953E+01  0.1393E+01
  -2.345  0.2968E+01  0.1408E+01
  -2.340  0.2983E+01  0.1423E+01
  -2.335  0.2997E+01  0.1438E+01
  -2.330  0.3011E+01  0.1453E+01
  -2.325  0.3024E+01  0.1468E+01
  -2.320  0.3037E+01  0.1483E+01
  -2.315  0.3049E+01  0.1499E+01
  -2.310  0.3061E+01  0.1514E+01
  -2.305  0.3072E+01  0.1529E+01
  -2.300  0.3082E+01  0.1545E+01
  -2.295  0.3092E+01  0.1560E+01
  -2.290  0.3101E+01  0.1576E+01
  -2.285  0.3110E+01  0.1591E+01
  -2.280  0.3117E+01  0.1607E+01
  -2.275  0.3125E+01  0.1622E+01
  -2.270  0.3131E+01  0.1638E+01
  -2.265  0.3137E+01  0.1654E+01
  -2.260  0.3142E+01  0.1669E+01
  -2.255  0.3147E+01  0.1685E+01
  -2.250  0.3150E+01  0.1701E+01
  -2.245  0.3153E+01  0.1717E+01
  -2.240  0.3156E+01  0.1733E+01
  -2.235  0.3157E+01  0.1748E+01
  -2.230  0.3158E+01  0.1764E+01
  -2.225  0.3159E+01  0.1780E+01
  -2.220  0.3158E+01  0.1796E+01
  -2.215  0.3157E+01  0.1811E+01
  -2.210  0.3155E+01  0.1827E+01
  -2.205  0.3152E+01  0.1843E+01
  -2.200  0.3149E+01  0.1859E+01
  -2.195  0.3145E+01  0.1874E+01
  -2.190  0.3140E+01  0.1890E+01
  -2.185  0.3135E+01  0.1906E+01
  -2.180  0.3128E+01  0.1921E+01
  -2.175  0.3122E+01  0.1937E+01
  -2.170  0.3114E+01  0.1953E+01
  -2.165  0.3106E+01  0.1968E+01
  -2.160  0.3097E+01  0.1984E+01
  -2.155  0.3087E+01  0.1999E+01
  -2.150  0.3077E+01  0.2014E+01
  -2.145  0.3066E+01  0.2030E+01
  -2.140  0.3054E+01  0.2045E+01
  -2.135  0.3042E+01  0.2060E+01
  -2.130  0.3029E+01  0.2075E+01
  -2.125  0.3016E+01  0.2091E+01
  -2.120  0.3002E+01  0.2106E+01
  -2.115  0.2988E+01  0.2120E+01
  -2.110  0.2972E+01  0.2135E+01
  -2.105  0.2957E+01  0.2150E+01
  -2.100  0.2940E+01  0.2165E+01
  -2.095  0.2924E+01  0.2179E+01
  -2.090  0.2907E+01  0.2194E+01
  -2.085  0.2889E+01  0.2208E+01
  -2.080  0.2871E+01  0.2223E+01
  -2.075  0.2852E+01  0.2237E+01
  -2.070  0.2833E+01  0.2251E+01
  -2.065  0.2813E+01  0.2265E+01
  -2.060  0.2793E+01  0.2279E+01
  -2.055  0.2773E+01  0.2293E+01
  -2.050  0.2752E+01  0.2307E+01
  -2.045  0.2731E+01  0.2321E+01
  -2.040  0.2710E+01  0.2334E+01
  -2.035  0.2688E+01  0.2348E+01
  -2.030  0.2666E+01  0.2361E+01
  -2.025  0.2644E+01  0.2374E+01
  -2.020  0.2622E+01  0.2387E+01
  -2.015  0.2599E+01  0.2400E+01
  -2.010  0.2576E+01  0.2413E+01
  -2.005  0.2553E+01  0.2426E+01
  -2.000  0.2530E+01  0.2438E+01
  -1.995  0.2506E+01  0.2451E+01
  -1.990  0.2482E+01  0.2463E+01
  -1.985  0.2459E+01  0.2476E+01
  -1.980  0.2435E+01  0.2488E+01
  -1.975  0.2411E+01  0.2500E+01
  -1.970  0.2387E+01  0.2512E+01
  -1.965  0.2363E+01  0.2524E+01
  -1.960  0.2340E+01  0.2535E+01
  -1.955  0.2316E+01  0.2547E+01
  -1.950  0.2292E+01  0.2558E+01
  -1.945  0.2268E+01  0.2570E+01
  -1.940  0.2244E+01  0.2581E+01
  -1.935  0.2221E+01  0.2592E+01
  -1.930  0.2198E+01  0.2603E+01
  -1.925  0.2174E+01  0.2614E+01
  -1.920  0.2151E+01  0.2625E+01
  -1.915  0.2128E+01  0.2635E+01
  -1.910  0.2106E+01  0.2646E+01
  -1.905  0.2083E+01  0.2656E+01
  -1.900  0.2061E+01  0.2667E+01
  -1.895  0.2039E+01  0.2677E+01
  -1.890  0.2018E+01  0.2687E+01
  -1.885  0.1997E+01  0.2697E+01
  -1.880  0.1976E+01  0.2707E+01
  -1.875  0.1956E+01  0.2717E+01
  -1.870  0.1936E+01  0.2726E+01
  -1.865  0.1916E+01  0.2736E+01
  -1.860  0.1897E+01  0.2745E+01
  -1.855  0.1878E+01  0.2755E+01
  -1.850  0.1860E+01  0.2764E+01
  -1.845  0.1842E+01  0.2773E+01
  -1.840  0.1825E+01  0.2782E+01
  -1.835  0.1809E+01  0.2791E+01
  -1.830  0.1793E+01  0.2800E+01
  -1.825  0.1777E+01  0.2809E+01
  -1.820  0.1762E+01  0.2818E+01
  -1.815  0.1748E+01  0.2827E+01
  -1.810  0.1735E+01  0.2835E+01
  -1.805  0.1722E+01  0.2844E+01
  -1.800  0.1709E+01  0.2853E+01
  -1.795  0.1698E+01  0.2861E+01
  -1.790  0.1687E+01  0.2869E+01
  -1.785  0.1677E+01  0.2878E+01
  -1.780  0.1667E+01  0.2886E+01
  -1.775  0.1659E+01  0.2894E+01
  -1.770  0.1651E+01  0.2903E+01
  -1.765  0.1644E+01  0.2911E+01
  -1.760  0.1637E+01  0.2919E+01
  -1.755  0.1631E+01  0.2927E+01
  -1.750  0.1627E+01  0.2935E+01
  -1.745  0.1623E+01  0.2944E+01
  -1.740  0.1619E+01  0.2952E+01
  -1.735  0.1617E+01  0.2960E+01
  -1.730  0.1615E+01  0.2968E+01
  -1.725  0.1615E+01  0.2976E+01
  -1.720  0.1615E+01  0.2984E+01
  -1.715  0.1615E+01  0.2992E+01
  -1.710  0.1617E+01  0.3000E+01
  -1.705  0.1620E+01  0.3008E+01
  -1.700  0.1623E+01  0.3016E+01
  -1.695  0.1627E+01  0.3024E+01
  -1.690  0.1632E+01  0.3033E+01
  -1.685  0.1638E+01  0.3041E+01
  -1.680  0.1644E+01  0.3049E+01
  -1.675  0.1652E+01  0.3057E+01
  -1.670  0.1660E+01  0.3066E+01
  -1.665  0.1669E+01  0.3074E+01
  -1.660  0.1679E+01  0.3082E+01
  -1.655  0.1689E+01  0.3091E+01
  -1.650  0.1701E+01  0.3099E+01
  -1.645  0.1713E+01  0.3108E+01
  -1.640  0.1725E+01  0.3116E+01
  -1.635  0.1739E+01  0.3125E+01
  -1.630  0.1753E+01  0.3134E+01
  -1.625  0.1768E+01  0.3143E+01
  -1.620  0.1784E+01  0.3152E+01
  -1.615  0.1800E+01  0.3161E+01
  -1.610  0.1817E+01  0.3170E+01
  -1.605  0.1835E+01  0.3179E+01
  -1.600  0.1853E+01  0.3188E+01
  -1.595  0.1872E+01  0.3198E+01
  -1.590  0.1891E+01  0.3207E+01
  -1.585  0.1911E+01  0.3217E+01
  -1.580  0.1932E+01  0.3226E+01
  -1.575  0.1953E+01  0.3236E+01
  -1.570  0.1974E+01  0.3246E+01
  -1.565  0.1997E+01  0.3256E+01
  -1.560  0.2019E+01  0.3266E+01
  -1.555  0.2042E+01  0.3276E+01
  -1.550  0.2065E+01  0.3287E+01
  -1.545  0.2089E+01  0.3297E+01
  -1.540  0.2113E+01  0.3308E+01
  -1.535  0.2138E+01  0.3318E+01
  -1.530  0.2162E+01  0.3329E+01
  -1.525  0.2187E+01  0.3340E+01
  -1.520  0.2213E+01  0.3351E+01
  -1.515  0.2238E+01  0.3362E+01
  -1.510  0.2264E+01  0.3374E+01
  -1.505  0.2290E+01  0.3385E+01
  -1.500  0.2316E+01  0.3397E+01
  -1.495  0.2342E+01  0.3408E+01
  -1.490  0.2368E+01  0.3420E+01
  -1.485  0.2395E+01  0.3432E+01
  -1.480  0.2421E+01  0.3444E+01
  -1.475  0.2447E+01  0.3456E+01
  -1.470  0.2474E+01  0.3469E+01
  -1.465  0.2500E+01  0.3481E+01
  -1.460  0.2526E+01  0.3494E+01
  -1.455  0.2553E+01  0.3507E+01
  -1.450  0.2579E+01  0.3520E+01
  -1.445  0.2604E+01  0.3533E+01
  -1.440  0.2630E+01  0.3546E+01
  -1.435  0.2656E+01  0.3559E+01
  -1.430  0.2681E+01  0.3572E+01
  -1.425  0.2706E+01  0.3586E+01
  -1.420  0.2731E+01  0.3600E+01
  -1.415  0.2755E+01  0.3613E+01
  -1.410  0.2779E+01  0.3627E+01
  -1.405  0.2803E+01  0.3641E+01
  -1.400  0.2827E+01  0.3655E+01
  -1.395  0.2849E+01  0.3670E+01
  -1.390  0.2872E+01  0.3684E+01
  -1.385  0.2894E+01  0.3699E+01
  -1.380  0.2916E+01  0.3713E+01
  -1.375  0.2937E+01  0.3728E+01
  -1.370  0.2957E+01  0.3743E+01
  -1.365  0.2977E+01  0.3757E+01
  -1.360  0.2996E+01  0.3772E+01
  -1.355  0.3015E+01  0.3787E+01
  -1.350  0.3033E+01  0.3803E+01
  -1.345  0.3050E+01  0.3818E+01
  -1.340  0.3067E+01  0.3833E+01
  -1.335  0.3083E+01  0.3849E+01
  -1.330  0.3099E+01  0.3864E+01
  -1.325  0.3113E+01  0.3880E+01
  -1.320  0.3127E+01  0.3895E+01
  -1.315  0.3140E+01  0.3911E+01
  -1.310  0.3153E+01  0.3927E+01
  -1.305  0.3164E+01  0.3943E+01
  -1.300  0.3175E+01  0.3959E+01
  -1.295  0.3185E+01  0.3974E+01
  -1.290  0.3194E+01  0.3990E+01
  -1.285  0.3202E+01  0.4006E+01
  -1.280  0.3209E+01  0.4022E+01
  -1.275  0.3216E+01  0.4039E+01
  -1.270  0.3222E+01  0.4055E+01
  -1.265  0.3226E+01  0.4071E+01
  -1.260  0.3230E+01  0.4087E+01
  -1.255  0.3233E+01  0.4103E+01
  -1.250  0.3235E+01  0.4119E+01
  -1.245  0.3237E+01  0.4135E+01
  -1.240  0.3237E+01  0.4152E+01
  -1.235  0.3236E+01  0.4168E+01
  -1.230  0.3235E+01  0.4184E+01
  -1.225  0.3232E+01  0.4200E+01
  -1.220  0.3229E+01  0.4216E+01
  -1.215  0.3225E+01  0.4232E+01
  -1.210  0.3220E+01  0.4249E+01
  -1.205  0.3214E+01  0.4265E+01
  -1.200  0.3208E+01  0.4281E+01
  -1.195  0.3200E+01  0.4297E+01
  -1.190  0.3192E+01  0.4313E+01
  -1.185  0.3183E+01  0.4329E+01
  -1.180  0.3173E+01  0.4344E+01
  -1.175  0.3162E+01  0.4360E+01
  -1.170  0.3151E+01  0.4376E+01
  -1.165  0.3139E+01  0.4392E+01
  -1.160  0.3126E+01  0.4407E+01
  -1.155  0.3113E+01  0.4423E+01
  -1.150  0.3098E+01  0.4438E+01
  -1.145  0.3084E+01  0.4454E+01
  -1.140  0.3068E+01  0.4469E+01
  -1.135  0.3052E+01  0.4484E+01
  -1.130  0.3036E+01  0.4500E+01
  -1.125  0.3019E+01  0.4515E+01
  -1.120  0.3001E+01  0.4530E+01
  -1.115  0.2983E+01  0.4545E+01
  -1.110  0.2965E+01  0.4559E+01
  -1.105  0.2946E+01  0.4574E+01
  -1.100  0.2927E+01  0.4589E+01
  -1.095  0.2907E+01  0.4603E+01
  -1.090  0.2887E+01  0.4618E+01
  -1.085  0.2867E+01  0.4632E+01
  -1.080  0.2847E+01  0.4646E+01
  -1.075  0.2826E+01  0.4660E+01
  -1.070  0.2806E+01  0.4674E+01
  -1.065  0.2785E+01  0.4688E+01
  -1.060  0.2764E+01  0.4702E+01
  -1.055  0.2743E+01  0.4716E+01
  -1.050  0.2723E+01  0.4730E+01
  -1.045  0.2702E+01  0.4743E+01
  -1.040  0.2681E+01  0.4756E+01
  -1.035  0.2660E+01  0.4770E+01
  -1.030  0.2640E+01  0.4783E+01
  -1.025  0.2619E+01  0.4796E+01
  -1.020  0.2599E+01  0.4809E+01
  -1.015  0.2579E+01  0.4822E+01
  -1.010  0.2559E+01  0.4835E+01
  -1.005  0.2540E+01  0.4847E+01
  -1.000  0.2521E+01  0.4860E+01
  -0.995  0.2502E+01  0.4873E+01
  -0.990  0.2484E+01  0.4885E+01
  -0.985  0.2466E+01  0.4897E+01
  -0.980  0.2448E+01  0.4910E+01
  -0.975  0.2431E+01  0.4922E+01
  -0.970  0.2415E+01  0.4934E+01
  -0.965  0.2398E+01  0.4946E+01
  -0.960  0.2383E+01  0.4958E+01
  -0.955  0.2368E+01  0.4969E+01
  -0.950  0.2353E+01  0.4981E+01
  -0.945  0.2339E+01  0.4993E+01
  -0.940  0.2326E+01  0.5005E+01
  -0.935  0.2313E+01  0.5016E+01
  -0.930  0.2301E+01  0.5028E+01
  -0.925  0.2289E+01  0.5039E+01
  -0.920  0.2279E+01  0.5050E+01
  -0.915  0.2268E+01  0.5062E+01
  -0.910  0.2259E+01  0.5073E+01
  -0.905  0.2250E+01  0.5084E+01
  -0.900  0.2241E+01  0.5096E+01
  -0.895  0.2234E+01  0.5107E+01
  -0.890  0.2227E+01  0.5118E+01
  -0.885  0.2220E+01  0.5129E+01
  -0.880  0.2215E+01  0.5140E+01
  -0.875  0.2210E+01  0.5151E+01
  -0.870  0.2205E+01  0.5162E+01
  -0.865  0.2201E+01  0.5173E+01
  -0.860  0.2198E+01  0.5184E+01
  -0.855  0.2196E+01  0.5195E+01
  -0.850  0.2194E+01  0.5206E+01
  -0.845  0.2193E+01  0.5217E+01
  -0.840  0.2192E+01  0.5228E+01
  -0.835  0.2192E+01  0.5239E+01
  -0.830  0.2192E+01  0.5250E+01
  -0.825  0.2193E+01  0.5261E+01
  -0.820  0.2194E+01  0.5272E+01
  -0.815  0.2196E+01  0.5283E+01
  -0.810  0.2199E+01  0.5294E+01
  -0.805  0.2202E+01  0.5305E+01
  -0.800  0.2205E+01  0.5316E+01
  -0.795  0.2209E+01  0.5327E+01
  -0.790  0.2214E+01  0.5338E+01
  -0.785  0.2218E+01  0.5349E+01
  -0.780  0.2223E+01  0.5360E+01
  -0.775  0.2229E+01  0.5371E+01
  -0.770  0.2235E+01  0.5383E+01
  -0.765  0.2241E+01  0.5394E+01
  -0.760  0.2247E+01  0.5405E+01
  -0.755  0.2254E+01  0.5416E+01
  -0.750  0.2261E+01  0.5428E+01
  -0.745  0.2268E+01  0.5439E+01
  -0.740  0.2276E+01  0.5450E+01
  -0.735  0.2283E+01  0.5462E+01
  -0.730  0.2291E+01  0.5473E+01
  -0.725  0.2299E+01  0.5485E+01
  -0.720  0.2307E+01  0.5496E+01
  -0.715  0.2315E+01  0.5508E+01
  -0.710  0.2324E+01  0.5519E+01
  -0.705  0.2332E+01  0.5531E+01
  -0.700  0.2341E+01  0.5543E+01
  -0.695  0.2349E+01  0.5554E+01
  -0.690  0.2358E+01  0.5566E+01
  -0.685  0.2366E+01  0.5578E+01
  -0.680  0.2375E+01  0.5590E+01
  -0.675  0.2384E+01  0.5602E+01
  -0.670  0.2392E+01  0.5614E+01
  -0.665  0.2401E+01  0.5626E+01
  -0.660  0.2409E+01  0.5638E+01
  -0.655  0.2417E+01  0.5650E+01
  -0.650  0.2426E+01  0.5662E+01
  -0.645  0.2434E+01  0.5674E+01
  -0.640  0.2442E+01  0.5686E+01
  -0.635  0.2450E+01  0.5699E+01
  -0.630  0.2458E+01  0.5711E+01
  -0.625  0.2466E+01  0.5723E+01
  -0.620  0.2473E+01  0.5736E+01
  -0.615  0.2480E+01  0.5748E+01
  -0.610  0.2488E+01  0.5761E+01
  -0.605  0.2495E+01  0.5773E+01
  -0.600  0.2502E+01  0.5786E+01
  -0.595  0.2509E+01  0.5798E+01
  -0.590  0.2515E+01  0.5811E+01
  -0.585  0.2521E+01  0.5823E+01
  -0.580  0.2528E+01  0.5836E+01
  -0.575  0.2534E+01  0.5849E+01
  -0.570  0.2540E+01  0.5861E+01
  -0.565  0.2545E+01  0.5874E+01
  -0.560  0.2551E+01  0.5887E+01
  -0.555  0.2556E+01  0.5900E+01
  -0.550  0.2561E+01  0.5912E+01
  -0.545  0.2566E+01  0.5925E+01
  -0.540  0.2571E+01  0.5938E+01
  -0.535  0.2575E+01  0.5951E+01
  -0.530  0.2580E+01  0.5964E+01
  -0.525  0.2584E+01  0.5977E+01
  -0.520  0.2588E+01  0.5990E+01
  -0.515  0.2592E+01  0.6003E+01
  -0.510  0.2596E+01  0.6016E+01
  -0.505  0.2599E+01  0.6029E+01
  -0.500  0.2603E+01  0.6042E+01
  -0.495  0.2606E+01  0.6055E+01
  -0.490  0.2609E+01  0.6068E+01
  -0.485  0.2612E+01  0.6081E+01
  -0.480  0.2615E+01  0.6094E+01
  -0.475  0.2618E+01  0.6107E+01
  -0.470  0.2620E+01  0.6120E+01
  -0.465  0.2623E+01  0.6133E+01
  -0.460  0.2625E+01  0.6146E+01
  -0.455  0.2627E+01  0.6159E+01
  -0.450  0.2630E+01  0.6173E+01
  -0.445  0.2632E+01  0.6186E+01
  -0.440  0.2634E+01  0.6199E+01
  -0.435  0.2635E+01  0.6212E+01
  -0.430  0.2637E+01  0.6225E+01
  -0.425  0.2639E+01  0.6238E+01
  -0.420  0.2641E+01  0.6252E+01
  -0.415  0.2642E+01  0.6265E+01
  -0.410  0.2644E+01  0.6278E+01
  -0.405  0.2645E+01  0.6291E+01
  -0.400  0.2646E+01  0.6305E+01
  -0.395  0.2648E+01  0.6318E+01
  -0.390  0.2649E+01  0.6331E+01
  -0.385  0.2650E+01  0.6344E+01
  -0.380  0.2651E+01  0.6358E+01
  -0.375  0.2652E+01  0.6371E+01
  -0.370  0.2653E+01  0.6384E+01
  -0.365  0.2654E+01  0.6397E+01
  -0.360  0.2655E+01  0.6411E+01
  -0.355  0.2656E+01  0.6424E+01
  -0.350  0.2657E+01  0.6437E+01
  -0.345  0.2658E+01  0.6450E+01
  -0.340  0.2659E+01  0.6464E+01
  -0.335  0.2660E+01  0.6477E+01
  -0.330  0.2661E+01  0.6490E+01
  -0.325  0.2662E+01  0.6504E+01
  -0.320  0.2662E+01  0.6517E+01
  -0.315  0.2663E+01  0.6530E+01
  -0.310  0.2664E+01  0.6544E+01
  -0.305  0.2664E+01  0.6557E+01
  -0.300  0.2665E+01  0.6570E+01
  -0.295  0.2666E+01  0.6584E+01
  -0.290  0.2666E+01  0.6597E+01
  -0.285  0.2667E+01  0.6610E+01
  -0.280  0.2667E+01  0.6624E+01
  -0.275  0.2668E+01  0.6637E+01
  -0.270  0.2668E+01  0.6650E+01
  -0.265  0.2668E+01  0.6664E+01
  -0.260  0.2669E+01  0.6677E+01
  -0.255  0.2669E+01  0.6690E+01
  -0.250  0.2669E+01  0.6704E+01
  -0.245  0.2669E+01  0.6717E+01
  -0.240  0.2669E+01  0.6730E+01
  -0.235  0.2669E+01  0.6744E+01
  -0.230  0.2669E+01  0.6757E+01
  -0.225  0.2669E+01  0.6770E+01
  -0.220  0.2669E+01  0.6784E+01
  -0.215  0.2669E+01  0.6797E+01
  -0.210  0.2669E+01  0.6810E+01
  -0.205  0.2668E+01  0.6824E+01
  -0.200  0.2668E+01  0.6837E+01
  -0.195  0.2667E+01  0.6850E+01
  -0.190  0.2667E+01  0.6864E+01
  -0.185  0.2666E+01  0.6877E+01
  -0.180  0.2665E+01  0.6890E+01
  -0.175  0.2664E+01  0.6904E+01
  -0.170  0.2663E+01  0.6917E+01
  -0.165  0.2662E+01  0.6930E+01
  -0.160  0.2661E+01  0.6944E+01
  -0.155  0.2660E+01  0.6957E+01
  -0.150  0.2658E+01  0.6970E+01
  -0.145  0.2657E+01  0.6984E+01
  -0.140  0.2655E+01  0.6997E+01
  -0.135  0.2654E+01  0.7010E+01
  -0.130  0.2652E+01  0.7023E+01
  -0.125  0.2650E+01  0.7037E+01
  -0.120  0.2648E+01  0.7050E+01
  -0.115  0.2646E+01  0.7063E+01
  -0.110  0.2644E+01  0.7076E+01
  -0.105  0.2642E+01  0.7089E+01
  -0.100  0.2640E+01  0.7103E+01
  -0.095  0.2638E+01  0.7116E+01
  -0.090  0.2635E+01  0.7129E+01
  -0.085  0.2633E+01  0.7142E+01
  -0.080  0.2630E+01  0.7155E+01
  -0.075  0.2628E+01  0.7169E+01
  -0.070  0.2625E+01  0.7182E+01
  -0.065  0.2623E+01  0.7195E+01
  -0.060  0.2620E+01  0.7208E+01
  -0.055  0.2618E+01  0.7221E+01
  -0.050  0.2615E+01  0.7234E+01
  -0.045  0.2612E+01  0.7247E+01
  -0.040  0.2610E+01  0.7260E+01
  -0.035  0.2607E+01  0.7273E+01
  -0.030  0.2605E+01  0.7286E+01
  -0.025  0.2602E+01  0.7299E+01
  -0.020  0.2600E+01  0.7312E+01
  -0.015  0.2597E+01  0.7325E+01
  -0.010  0.2595E+01  0.7338E+01
  -0.005  0.2593E+01  0.7351E+01
   0.000  0.2590E+01  0.7364E+01
   0.005  0.2588E+01  0.7377E+01
   0.010  0.2587E+01  0.7390E+01
   0.015  0.2585E+01  0.7403E+01
   0.020  0.2583E+01  0.7416E+01
   0.025  0.2582E+01  0.7429E+01
   0.030  0.2580E+01  0.7442E+01
   0.035  0.2579E+01  0.7454E+01
   0.040  0.2579E+01  0.7467E+01
   0.045  0.2578E+01  0.7480E+01
   0.050  0.2578E+01  0.7493E+01
   0.055  0.2577E+01  0.7506E+01
   0.060  0.2578E+01  0.7519E+01
   0.065  0.2578E+01  0.7532E+01
   0.070  0.2579E+01  0.7545E+01
   0.075  0.2580E+01  0.7558E+01
   0.080  0.2581E+01  0.7571E+01
   0.085  0.2583E+01  0.7583E+01
   0.090  0.2585E+01  0.7596E+01
   0.095  0.2587E+01  0.7609E+01
   0.100  0.2590E+01  0.7622E+01
   0.105  0.2593E+01  0.7635E+01
   0.110  0.2597E+01  0.7648E+01
   0.115  0.2601E+01  0.7661E+01
   0.120  0.2605E+01  0.7674E+01
   0.125  0.2610E+01  0.7687E+01
   0.130  0.2616E+01  0.7700E+01
   0.135  0.2621E+01  0.7713E+01
   0.140  0.2628E+01  0.7727E+01
   0.145  0.2634E+01  0.7740E+01
   0.150  0.2641E+01  0.7753E+01
   0.155  0.2649E+01  0.7766E+01
   0.160  0.2657E+01  0.7780E+01
   0.165  0.2665E+01  0.7793E+01
   0.170  0.2674E+01  0.7806E+01
   0.175  0.2684E+01  0.7820E+01
   0.180  0.2694E+01  0.7833E+01
   0.185  0.2704E+01  0.7847E+01
   0.190  0.2715E+01  0.7860E+01
   0.195  0.2726E+01  0.7874E+01
   0.200  0.2738E+01  0.7888E+01
   0.205  0.2750E+01  0.7901E+01
   0.210  0.2763E+01  0.7915E+01
   0.215  0.2776E+01  0.7929E+01
   0.220  0.2790E+01  0.7943E+01
   0.225  0.2804E+01  0.7957E+01
   0.230  0.2818E+01  0.7971E+01
   0.235  0.2833E+01  0.7985E+01
   0.240  0.2848E+01  0.7999E+01
   0.245  0.2863E+01  0.8014E+01
   0.250  0.2879E+01  0.8028E+01
   0.255  0.2896E+01  0.8043E+01
   0.260  0.2912E+01  0.8057E+01
   0.265  0.2929E+01  0.8072E+01
   0.270  0.2946E+01  0.8087E+01
   0.275  0.2964E+01  0.8101E+01
   0.280  0.2981E+01  0.8116E+01
   0.285  0.2999E+01  0.8131E+01
   0.290  0.3017E+01  0.8146E+01
   0.295  0.3036E+01  0.8162E+01
   0.300  0.3054E+01  0.8177E+01
   0.305  0.3073E+01  0.8192E+01
   0.310  0.3092E+01  0.8208E+01
   0.315  0.3111E+01  0.8223E+01
   0.320  0.3129E+01  0.8239E+01
   0.325  0.3148E+01  0.8255E+01
   0.330  0.3168E+01  0.8270E+01
   0.335  0.3187E+01  0.8286E+01
   0.340  0.3206E+01  0.8302E+01
   0.345  0.3225E+01  0.8319E+01
   0.350  0.3244E+01  0.8335E+01
   0.355  0.3262E+01  0.8351E+01
   0.360  0.3281E+01  0.8367E+01
   0.365  0.3300E+01  0.8384E+01
   0.370  0.3318E+01  0.8401E+01
   0.375  0.3336E+01  0.8417E+01
   0.380  0.3355E+01  0.8434E+01
   0.385  0.3372E+01  0.8451E+01
   0.390  0.3390E+01  0.8468E+01
   0.395  0.3407E+01  0.8485E+01
   0.400  0.3425E+01  0.8502E+01
   0.405  0.3441E+01  0.8519E+01
   0.410  0.3458E+01  0.8536E+01
   0.415  0.3474E+01  0.8554E+01
   0.420  0.3490E+01  0.8571E+01
   0.425  0.3505E+01  0.8589E+01
   0.430  0.3520E+01  0.8606E+01
   0.435  0.3535E+01  0.8624E+01
   0.440  0.3549E+01  0.8642E+01
   0.445  0.3563E+01  0.8660E+01
   0.450  0.3577E+01  0.8678E+01
   0.455  0.3590E+01  0.8695E+01
   0.460  0.3602E+01  0.8713E+01
   0.465  0.3614E+01  0.8732E+01
   0.470  0.3626E+01  0.8750E+01
   0.475  0.3637E+01  0.8768E+01
   0.480  0.3648E+01  0.8786E+01
   0.485  0.3658E+01  0.8804E+01
   0.490  0.3668E+01  0.8823E+01
   0.495  0.3677E+01  0.8841E+01
   0.500  0.3686E+01  0.8860E+01
   0.505  0.3695E+01  0.8878E+01
   0.510  0.3702E+01  0.8897E+01
   0.515  0.3710E+01  0.8915E+01
   0.520  0.3717E+01  0.8934E+01
   0.525  0.3723E+01  0.8952E+01
   0.530  0.3729E+01  0.8971E+01
   0.535  0.3735E+01  0.8990E+01
   0.540  0.3740E+01  0.9008E+01
   0.545  0.3745E+01  0.9027E+01
   0.550  0.3749E+01  0.9046E+01
   0.555  0.3753E+01  0.9065E+01
   0.560  0.3756E+01  0.9083E+01
   0.565  0.3760E+01  0.9102E+01
   0.570  0.3762E+01  0.9121E+01
   0.575  0.3764E+01  0.9140E+01
   0.580  0.3766E+01  0.9159E+01
   0.585  0.3768E+01  0.9177E+01
   0.590  0.3769E+01  0.9196E+01
   0.595  0.3770E+01  0.9215E+01
   0.600  0.3770E+01  0.9234E+01
   0.605  0.3771E+01  0.9253E+01
   0.610  0.3770E+01  0.9272E+01
   0.615  0.3770E+01  0.9291E+01
   0.620  0.3769E+01  0.9309E+01
   0.625  0.3768E+01  0.9328E+01
   0.630  0.3767E+01  0.9347E+01
   0.635  0.3766E+01  0.9366E+01
   0.640  0.3764E+01  0.9385E+01
   0.645  0.3762E+01  0.9404E+01
   0.650  0.3760E+01  0.9422E+01
   0.655  0.3758E+01  0.9441E+01
   0.660  0.3755E+01  0.9460E+01
   0.665  0.3753E+01  0.9479E+01
   0.670  0.3750E+01  0.9497E+01
   0.675  0.3747E+01  0.9516E+01
   0.680  0.3744E+01  0.9535E+01
   0.685  0.3741E+01  0.9554E+01
   0.690  0.3737E+01  0.9572E+01
   0.695  0.3734E+01  0.9591E+01
   0.700  0.3731E+01  0.9610E+01
   0.705  0.3727E+01  0.9628E+01
   0.710  0.3723E+01  0.9647E+01
   0.715  0.3719E+01  0.9665E+01
   0.720  0.3715E+01  0.9684E+01
   0.725  0.3712E+01  0.9703E+01
   0.730  0.3708E+01  0.9721E+01
   0.735  0.3703E+01  0.9740E+01
   0.740  0.3699E+01  0.9758E+01
   0.745  0.3695E+01  0.9777E+01
   0.750  0.3691E+01  0.9795E+01
   0.755  0.3687E+01  0.9813E+01
   0.760  0.3682E+01  0.9832E+01
   0.765  0.3678E+01  0.9850E+01
   0.770  0.3674E+01  0.9869E+01
   0.775  0.3669E+01  0.9887E+01
   0.780  0.3665E+01  0.9905E+01
   0.785  0.3660E+01  0.9924E+01
   0.790  0.3656E+01  0.9942E+01
   0.795  0.3651E+01  0.9960E+01
   0.800  0.3647E+01  0.9978E+01
   0.805  0.3642E+01  0.9997E+01
   0.810  0.3637E+01  0.1001E+02
   0.815  0.3633E+01  0.1003E+02
   0.820  0.3628E+01  0.1005E+02
   0.825  0.3623E+01  0.1007E+02
   0.830  0.3618E+01  0.1009E+02
   0.835  0.3613E+01  0.1011E+02
   0.840  0.3608E+01  0.1012E+02
   0.845  0.3603E+01  0.1014E+02
   0.850  0.3598E+01  0.1016E+02
   0.855  0.3593E+01  0.1018E+02
   0.860  0.3588E+01  0.1020E+02
   0.865  0.3582E+01  0.1021E+02
   0.870  0.3577E+01  0.1023E+02
   0.875  0.3572E+01  0.1025E+02
   0.880  0.3566E+01  0.1027E+02
   0.885  0.3561E+01  0.1028E+02
   0.890  0.3555E+01  0.1030E+02
   0.895  0.3549E+01  0.1032E+02
   0.900  0.3543E+01  0.1034E+02
   0.905  0.3538E+01  0.1036E+02
   0.910  0.3532E+01  0.1037E+02
   0.915  0.3525E+01  0.1039E+02
   0.920  0.3519E+01  0.1041E+02
   0.925  0.3513E+01  0.1043E+02
   0.930  0.3507E+01  0.1044E+02
   0.935  0.3500E+01  0.1046E+02
   0.940  0.3494E+01  0.1048E+02
   0.945  0.3487E+01  0.1050E+02
   0.950  0.3481E+01  0.1051E+02
   0.955  0.3474E+01  0.1053E+02
   0.960  0.3467E+01  0.1055E+02
   0.965  0.3460E+01  0.1057E+02
   0.970  0.3453E+01  0.1058E+02
   0.975  0.3446E+01  0.1060E+02
   0.980  0.3439E+01  0.1062E+02
   0.985  0.3432E+01  0.1063E+02
   0.990  0.3425E+01  0.1065E+02
   0.995  0.3418E+01  0.1067E+02
   1.000  0.3410E+01  0.1069E+02
   1.005  0.3403E+01  0.1070E+02
   1.010  0.3396E+01  0.1072E+02
   1.015  0.3388E+01  0.1074E+02
   1.020  0.3381E+01  0.1075E+02
   1.025  0.3374E+01  0.1077E+02
   1.030  0.3366E+01  0.1079E+02
   1.035  0.3359E+01  0.1080E+02
   1.040  0.3352E+01  0.1082E+02
   1.045  0.3344E+01  0.1084E+02
   1.050  0.3337E+01  0.1085E+02
   1.055  0.3330E+01  0.1087E+02
   1.060  0.3323E+01  0.1089E+02
   1.065  0.3316E+01  0.1090E+02
   1.070  0.3308E+01  0.1092E+02
   1.075  0.3301E+01  0.1094E+02
   1.080  0.3295E+01  0.1095E+02
   1.085  0.3288E+01  0.1097E+02
   1.090  0.3281E+01  0.1099E+02
   1.095  0.3275E+01  0.1100E+02
   1.100  0.3268E+01  0.1102E+02
   1.105  0.3262E+01  0.1104E+02
   1.110  0.3256E+01  0.1105E+02
   1.115  0.3250E+01  0.1107E+02
   1.120  0.3244E+01  0.1108E+02
   1.125  0.3238E+01  0.1110E+02
   1.130  0.3233E+01  0.1112E+02
   1.135  0.3227E+01  0.1113E+02
   1.140  0.3222E+01  0.1115E+02
   1.145  0.3217E+01  0.1116E+02
   1.150  0.3213E+01  0.1118E+02
   1.155  0.3208E+01  0.1120E+02
   1.160  0.3204E+01  0.1121E+02
   1.165  0.3200E+01  0.1123E+02
   1.170  0.3196E+01  0.1124E+02
   1.175  0.3193E+01  0.1126E+02
   1.180  0.3189E+01  0.1128E+02
   1.185  0.3186E+01  0.1129E+02
   1.190  0.3183E+01  0.1131E+02
   1.195  0.3181E+01  0.1132E+02
   1.200  0.3178E+01  0.1134E+02
   1.205  0.3176E+01  0.1136E+02
   1.210  0.3174E+01  0.1137E+02
   1.215  0.3172E+01  0.1139E+02
   1.220  0.3171E+01  0.1140E+02
   1.225  0.3170E+01  0.1142E+02
   1.230  0.3169E+01  0.1144E+02
   1.235  0.3168E+01  0.1145E+02
   1.240  0.3168E+01  0.1147E+02
   1.245  0.3167E+01  0.1148E+02
   1.250  0.3167E+01  0.1150E+02
   1.255  0.3167E+01  0.1151E+02
   1.260  0.3168E+01  0.1153E+02
   1.265  0.3168E+01  0.1155E+02
   1.270  0.3169E+01  0.1156E+02
   1.275  0.3170E+01  0.1158E+02
   1.280  0.3171E+01  0.1159E+02
   1.285  0.3172E+01  0.1161E+02
   1.290  0.3174E+01  0.1163E+02
   1.295  0.3175E+01  0.1164E+02
   1.300  0.3177E+01  0.1166E+02
   1.305  0.3178E+01  0.1167E+02
   1.310  0.3180E+01  0.1169E+02
   1.315  0.3182E+01  0.1171E+02
   1.320  0.3184E+01  0.1172E+02
   1.325  0.3186E+01  0.1174E+02
   1.330  0.3188E+01  0.1175E+02
   1.335  0.3190E+01  0.1177E+02
   1.340  0.3192E+01  0.1178E+02
   1.345  0.3195E+01  0.1180E+02
   1.350  0.3197E+01  0.1182E+02
   1.355  0.3199E+01  0.1183E+02
   1.360  0.3201E+01  0.1185E+02
   1.365  0.3203E+01  0.1186E+02
   1.370  0.3205E+01  0.1188E+02
   1.375  0.3207E+01  0.1190E+02
   1.380  0.3209E+01  0.1191E+02
   1.385  0.3211E+01  0.1193E+02
   1.390  0.3212E+01  0.1194E+02
   1.395  0.3214E+01  0.1196E+02
   1.400  0.3215E+01  0.1198E+02
   1.405  0.3216E+01  0.1199E+02
   1.410  0.3217E+01  0.1201E+02
   1.415  0.3218E+01  0.1203E+02
   1.420  0.3219E+01  0.1204E+02
   1.425  0.3219E+01  0.1206E+02
   1.430  0.3220E+01  0.1207E+02
   1.435  0.3220E+01  0.1209E+02
   1.440  0.3220E+01  0.1211E+02
   1.445  0.3219E+01  0.1212E+02
   1.450  0.3219E+01  0.1214E+02
   1.455  0.3218E+01  0.1215E+02
   1.460  0.3217E+01  0.1217E+02
   1.465  0.3216E+01  0.1219E+02
   1.470  0.3214E+01  0.1220E+02
   1.475  0.3213E+01  0.1222E+02
   1.480  0.3211E+01  0.1223E+02
   1.485  0.3209E+01  0.1225E+02
   1.490  0.3206E+01  0.1227E+02
   1.495  0.3203E+01  0.1228E+02
   1.500  0.3200E+01  0.1230E+02
   1.505  0.3197E+01  0.1231E+02
   1.510  0.3194E+01  0.1233E+02
   1.515  0.3190E+01  0.1235E+02
   1.520  0.3186E+01  0.1236E+02
   1.525  0.3182E+01  0.1238E+02
   1.530  0.3178E+01  0.1239E+02
   1.535  0.3173E+01  0.1241E+02
   1.540  0.3168E+01  0.1243E+02
   1.545  0.3163E+01  0.1244E+02
   1.550  0.3158E+01  0.1246E+02
   1.555  0.3152E+01  0.1247E+02
   1.560  0.3147E+01  0.1249E+02
   1.565  0.3141E+01  0.1250E+02
   1.570  0.3135E+01  0.1252E+02
   1.575  0.3128E+01  0.1254E+02
   1.580  0.3122E+01  0.1255E+02
   1.585  0.3115E+01  0.1257E+02
   1.590  0.3109E+01  0.1258E+02
   1.595  0.3102E+01  0.1260E+02
   1.600  0.3095E+01  0.1261E+02
   1.605  0.3088E+01  0.1263E+02
   1.610  0.3080E+01  0.1264E+02
   1.615  0.3073E+01  0.1266E+02
   1.620  0.3065E+01  0.1268E+02
   1.625  0.3058E+01  0.1269E+02
   1.630  0.3050E+01  0.1271E+02
   1.635  0.3042E+01  0.1272E+02
   1.640  0.3034E+01  0.1274E+02
   1.645  0.3026E+01  0.1275E+02
   1.650  0.3017E+01  0.1277E+02
   1.655  0.3009E+01  0.1278E+02
   1.660  0.3001E+01  0.1280E+02
   1.665  0.2992E+01  0.1281E+02
   1.670  0.2983E+01  0.1283E+02
   1.675  0.2975E+01  0.1284E+02
   1.680  0.2966E+01  0.1286E+02
   1.685  0.2957E+01  0.1287E+02
   1.690  0.2948E+01  0.1289E+02
   1.695  0.2939E+01  0.1290E+02
   1.700  0.2929E+01  0.1291E+02
   1.705  0.2920E+01  0.1293E+02
   1.710  0.2911E+01  0.1294E+02
   1.715  0.2901E+01  0.1296E+02
   1.720  0.2891E+01  0.1297E+02
   1.725  0.2881E+01  0.1299E+02
   1.730  0.2871E+01  0.1300E+02
   1.735  0.2861E+01  0.1302E+02
   1.740  0.2851E+01  0.1303E+02
   1.745  0.2840E+01  0.1304E+02
   1.750  0.2829E+01  0.1306E+02
   1.755  0.2819E+01  0.1307E+02
   1.760  0.2808E+01  0.1309E+02
   1.765  0.2796E+01  0.1310E+02
   1.770  0.2785E+01  0.1311E+02
   1.775  0.2773E+01  0.1313E+02
   1.780  0.2761E+01  0.1314E+02
   1.785  0.2749E+01  0.1316E+02
   1.790  0.2736E+01  0.1317E+02
   1.795  0.2723E+01  0.1318E+02
   1.800  0.2710E+01  0.1320E+02
   1.805  0.2697E+01  0.1321E+02
   1.810  0.2683E+01  0.1322E+02
   1.815  0.2669E+01  0.1324E+02
   1.820  0.2655E+01  0.1325E+02
   1.825  0.2640E+01  0.1326E+02
   1.830  0.2625E+01  0.1328E+02
   1.835  0.2610E+01  0.1329E+02
   1.840  0.2594E+01  0.1330E+02
   1.845  0.2578E+01  0.1332E+02
   1.850  0.2561E+01  0.1333E+02
   1.855  0.2544E+01  0.1334E+02
   1.860  0.2527E+01  0.1335E+02
   1.865  0.2509E+01  0.1337E+02
   1.870  0.2491E+01  0.1338E+02
   1.875  0.2472E+01  0.1339E+02
   1.880  0.2453E+01  0.1340E+02
   1.885  0.2433E+01  0.1342E+02
   1.890  0.2413E+01  0.1343E+02
   1.895  0.2393E+01  0.1344E+02
   1.900  0.2372E+01  0.1345E+02
   1.905  0.2351E+01  0.1346E+02
   1.910  0.2329E+01  0.1347E+02
   1.915  0.2307E+01  0.1349E+02
   1.920  0.2284E+01  0.1350E+02
   1.925  0.2261E+01  0.1351E+02
   1.930  0.2238E+01  0.1352E+02
   1.935  0.2214E+01  0.1353E+02
   1.940  0.2190E+01  0.1354E+02
   1.945  0.2165E+01  0.1355E+02
   1.950  0.2140E+01  0.1356E+02
   1.955  0.2114E+01  0.1357E+02
   1.960  0.2088E+01  0.1358E+02
   1.965  0.2062E+01  0.1360E+02
   1.970  0.2035E+01  0.1361E+02
   1.975  0.2008E+01  0.1362E+02
   1.980  0.1981E+01  0.1363E+02
   1.985  0.1953E+01  0.1364E+02
   1.990  0.1925E+01  0.1364E+02
   1.995  0.1897E+01  0.1365E+02
   2.000  0.1868E+01  0.1366E+02
   2.005  0.1840E+01  0.1367E+02
   2.010  0.1811E+01  0.1368E+02
   2.015  0.1781E+01  0.1369E+02
   2.020  0.1752E+01  0.1370E+02
   2.025  0.1722E+01  0.1371E+02
   2.030  0.1692E+01  0.1372E+02
   2.035  0.1662E+01  0.1372E+02
   2.040  0.1632E+01  0.1373E+02
   2.045  0.1602E+01  0.1374E+02
   2.050  0.1572E+01  0.1375E+02
   2.055  0.1542E+01  0.1376E+02
   2.060  0.1511E+01  0.1376E+02
   2.065  0.1481E+01  0.1377E+02
   2.070  0.1451E+01  0.1378E+02
   2.075  0.1420E+01  0.1379E+02
   2.080  0.1390E+01  0.1379E+02
   2.085  0.1360E+01  0.1380E+02
   2.090  0.1329E+01  0.1381E+02
   2.095  0.1299E+01  0.1381E+02
   2.100  0.1270E+01  0.1382E+02
   2.105  0.1240E+01  0.1383E+02
   2.110  0.1210E+01  0.1383E+02
   2.115  0.1181E+01  0.1384E+02
   2.120  0.1151E+01  0.1384E+02
   2.125  0.1122E+01  0.1385E+02
   2.130  0.1094E+01  0.1385E+02
   2.135  0.1065E+01  0.1386E+02
   2.140  0.1037E+01  0.1386E+02
   2.145  0.1009E+01  0.1387E+02
   2.150  0.9814E+00  0.1387E+02
   2.155  0.9541E+00  0.1388E+02
   2.160  0.9271E+00  0.1388E+02
   2.165  0.9004E+00  0.1389E+02
   2.170  0.8742E+00  0.1389E+02
   2.175  0.8482E+00  0.1390E+02
   2.180  0.8227E+00  0.1390E+02
   2.185  0.7976E+00  0.1391E+02
   2.190  0.7729E+00  0.1391E+02
   2.195  0.7486E+00  0.1391E+02
   2.200  0.7247E+00  0.1392E+02
   2.205  0.7012E+00  0.1392E+02
   2.210  0.6782E+00  0.1392E+02
   2.215  0.6556E+00  0.1393E+02
   2.220  0.6335E+00  0.1393E+02
   2.225  0.6118E+00  0.1393E+02
   2.230  0.5906E+00  0.1394E+02
   2.235  0.5699E+00  0.1394E+02
   2.240  0.5496E+00  0.1394E+02
   2.245  0.5297E+00  0.1394E+02
   2.250  0.5104E+00  0.1395E+02
   2.255  0.4915E+00  0.1395E+02
   2.260  0.4731E+00  0.1395E+02
   2.265  0.4551E+00  0.1395E+02
   2.270  0.4376E+00  0.1396E+02
   2.275  0.4206E+00  0.1396E+02
   2.280  0.4041E+00  0.1396E+02
   2.285  0.3880E+00  0.1396E+02
   2.290  0.3723E+00  0.1396E+02
   2.295  0.3572E+00  0.1397E+02
   2.300  0.3424E+00  0.1397E+02
   2.305  0.3281E+00  0.1397E+02
   2.310  0.3143E+00  0.1397E+02
   2.315  0.3009E+00  0.1397E+02
   2.320  0.2879E+00  0.1397E+02
   2.325  0.2753E+00  0.1397E+02
   2.330  0.2632E+00  0.1398E+02
   2.335  0.2515E+00  0.1398E+02
   2.340  0.2401E+00  0.1398E+02
   2.345  0.2292E+00  0.1398E+02
   2.350  0.2186E+00  0.1398E+02
   2.355  0.2085E+00  0.1398E+02
   2.360  0.1987E+00  0.1398E+02
   2.365  0.1892E+00  0.1398E+02
   2.370  0.1802E+00  0.1398E+02
   2.375  0.1714E+00  0.1399E+02
   2.380  0.1631E+00  0.1399E+02
   2.385  0.1550E+00  0.1399E+02
   2.390  0.1473E+00  0.1399E+02
   2.395  0.1399E+00  0.1399E+02
   2.400  0.1327E+00  0.1399E+02
   2.405  0.1259E+00  0.1399E+02
   2.410  0.1194E+00  0.1399E+02
   2.415  0.1132E+00  0.1399E+02
   2.420  0.1072E+00  0.1399E+02
   2.425  0.1015E+00  0.1399E+02
   2.430  0.9601E-01  0.1399E+02
   2.435  0.9080E-01  0.1399E+02
   2.440  0.8583E-01  0.1399E+02
   2.445  0.8109E-01  0.1399E+02
   2.450  0.7657E-01  0.1399E+02
   2.455  0.7226E-01  0.1399E+02
   2.460  0.6817E-01  0.1400E+02
   2.465  0.6427E-01  0.1400E+02
   2.470  0.6057E-01  0.1400E+02
   2.475  0.5705E-01  0.1400E+02
   2.480  0.5370E-01  0.1400E+02
   2.485  0.5053E-01  0.1400E+02
   2.490  0.4752E-01  0.1400E+02
   2.495  0.4467E-01  0.1400E+02
   2.500  0.4197E-01  0.1400E+02
   2.505  0.3942E-01  0.1400E+02
   2.510  0.3700E-01  0.1400E+02
   2.515  0.3472E-01  0.1400E+02
   2.520  0.3256E-01  0.1400E+02
   2.525  0.3053E-01  0.1400E+02
   2.530  0.2861E-01  0.1400E+02
   2.535  0.2680E-01  0.1400E+02
   2.540  0.2510E-01  0.1400E+02
   2.545  0.2350E-01  0.1400E+02
   2.550  0.2199E-01  0.1400E+02
   2.555  0.2058E-01  0.1400E+02
   2.560  0.1926E-01  0.1400E+02
   2.565  0.1802E-01  0.1400E+02
   2.570  0.1686E-01  0.1400E+02
   2.575  0.1577E-01  0.1400E+02
   2.580  0.1476E-01  0.1400E+02
   2.585  0.1382E-01  0.1400E+02
   2.590  0.1295E-01  0.1400E+02
   2.595  0.1214E-01  0.1400E+02
   2.600  0.1139E-01  0.1400E+02
   2.605  0.1071E-01  0.1400E+02
   2.610  0.1007E-01  0.1400E+02
   2.615  0.9496E-02  0.1400E+02
   2.620  0.8970E-02  0.1400E+02
   2.625  0.8494E-02  0.1400E+02
   2.630  0.8067E-02  0.1400E+02
   2.635  0.7688E-02  0.1400E+02
   2.640  0.7354E-02  0.1400E+02
   2.645  0.7065E-02  0.1400E+02
   2.650  0.6820E-02  0.1400E+02
   2.655  0.6618E-02  0.1400E+02
   2.660  0.6458E-02  0.1400E+02
   2.665  0.6341E-02  0.1400E+02
   2.670  0.6265E-02  0.1400E+02
   2.675  0.6231E-02  0.1400E+02
   2.680  0.6238E-02  0.1400E+02
   2.685  0.6288E-02  0.1400E+02
   2.690  0.6380E-02  0.1400E+02
   2.695  0.6516E-02  0.1400E+02
   2.700  0.6695E-02  0.1400E+02
   2.705  0.6920E-02  0.1400E+02
   2.710  0.7191E-02  0.1400E+02
   2.715  0.7509E-02  0.1400E+02
   2.720  0.7877E-02  0.1400E+02
   2.725  0.8296E-02  0.1400E+02
   2.730  0.8768E-02  0.1400E+02
   2.735  0.9296E-02  0.1400E+02
   2.740  0.9882E-02  0.1400E+02
   2.745  0.1053E-01  0.1400E+02
   2.750  0.1124E-01  0.1400E+02
   2.755  0.1201E-01  0.1400E+02
   2.760  0.1286E-01  0.1400E+02
   2.765  0.1378E-01  0.1400E+02
   2.770  0.1478E-01  0.1400E+02
   2.775  0.1585E-01  0.1400E+02
   2.780  0.1702E-01  0.1400E+02
   2.785  0.1827E-01  0.1400E+02
   2.790  0.1962E-01  0.1400E+02
   2.795  0.2107E-01  0.1400E+02
   2.800  0.2263E-01  0.1400E+02
   2.805  0.2429E-01  0.1400E+02
   2.810  0.2608E-01  0.1400E+02
   2.815  0.2799E-01  0.1400E+02
   2.820  0.3003E-01  0.1400E+02
   2.825  0.3220E-01  0.1400E+02
   2.830  0.3452E-01  0.1400E+02
   2.835  0.3699E-01  0.1400E+02
   2.840  0.3963E-01  0.1400E+02
   2.845  0.4242E-01  0.1400E+02
   2.850  0.4540E-01  0.1400E+02
   2.855  0.4856E-01  0.1400E+02
   2.860  0.5191E-01  0.1400E+02
   2.865  0.5546E-01  0.1400E+02
   2.870  0.5923E-01  0.1400E+02
   2.875  0.6322E-01  0.1400E+02
   2.880  0.6744E-01  0.1400E+02
   2.885  0.7191E-01  0.1401E+02
   2.890  0.7663E-01  0.1401E+02
   2.895  0.8161E-01  0.1401E+02
   2.900  0.8687E-01  0.1401E+02
   2.905  0.9242E-01  0.1401E+02
   2.910  0.9826E-01  0.1401E+02
   2.915  0.1044E+00  0.1401E+02
   2.920  0.1109E+00  0.1401E+02
   2.925  0.1177E+00  0.1401E+02
   2.930  0.1249E+00  0.1401E+02
   2.935  0.1324E+00  0.1401E+02
   2.940  0.1403E+00  0.1401E+02
   2.945  0.1486E+00  0.1401E+02
   2.950  0.1573E+00  0.1401E+02
   2.955  0.1665E+00  0.1401E+02
   2.960  0.1760E+00  0.1401E+02
   2.965  0.1860E+00  0.1402E+02
   2.970  0.1965E+00  0.1402E+02
   2.975  0.2074E+00  0.1402E+02
   2.980  0.2188E+00  0.1402E+02
   2.985  0.2307E+00  0.1402E+02
   2.990  0.2431E+00  0.1402E+02
   2.995  0.2561E+00  0.1402E+02
   3.000  0.2696E+00  0.1402E+02
   3.005  0.2837E+00  0.1402E+02
   3.010  0.2983E+00  0.1403E+02
   3.015  0.3135E+00  0.1403E+02
   3.020  0.3294E+00  0.1403E+02
   3.025  0.3458E+00  0.1403E+02
   3.030  0.3628E+00  0.1403E+02
   3.035  0.3805E+00  0.1403E+02
   3.040  0.3989E+00  0.1404E+02
   3.045  0.4179E+00  0.1404E+02
   3.050  0.4375E+00  0.1404E+02
   3.055  0.4579E+00  0.1404E+02
   3.060  0.4789E+00  0.1405E+02
   3.065  0.5007E+00  0.1405E+02
   3.070  0.5231E+00  0.1405E+02
   3.075  0.5463E+00  0.1405E+02
   3.080  0.5702E+00  0.1406E+02
   3.085  0.5948E+00  0.1406E+02
   3.090  0.6202E+00  0.1406E+02
   3.095  0.6463E+00  0.1407E+02
   3.100  0.6732E+00  0.1407E+02
   3.105  0.7008E+00  0.1407E+02
   3.110  0.7292E+00  0.1408E+02
   3.115  0.7583E+00  0.1408E+02
   3.120  0.7882E+00  0.1408E+02
   3.125  0.8189E+00  0.1409E+02
   3.130  0.8503E+00  0.1409E+02
   3.135  0.8824E+00  0.1410E+02
   3.140  0.9153E+00  0.1410E+02
   3.145  0.9490E+00  0.1411E+02
   3.150  0.9834E+00  0.1411E+02
   3.155  0.1018E+01  0.1412E+02
   3.160  0.1054E+01  0.1412E+02
   3.165  0.1091E+01  0.1413E+02
   3.170  0.1128E+01  0.1413E+02
   3.175  0.1166E+01  0.1414E+02
   3.180  0.1205E+01  0.1414E+02
   3.185  0.1244E+01  0.1415E+02
   3.190  0.1284E+01  0.1416E+02
   3.195  0.1325E+01  0.1416E+02
   3.200  0.1366E+01  0.1417E+02
   3.205  0.1407E+01  0.1418E+02
   3.210  0.1450E+01  0.1418E+02
   3.215  0.1493E+01  0.1419E+02
   3.220  0.1536E+01  0.1420E+02
   3.225  0.1580E+01  0.1421E+02
   3.230  0.1624E+01  0.1422E+02
   3.235  0.1669E+01  0.1422E+02
   3.240  0.1715E+01  0.1423E+02
   3.245  0.1760E+01  0.1424E+02
   3.250  0.1806E+01  0.1425E+02
   3.255  0.1853E+01  0.1426E+02
   3.260  0.1899E+01  0.1427E+02
   3.265  0.1946E+01  0.1428E+02
   3.270  0.1993E+01  0.1429E+02
   3.275  0.2041E+01  0.1430E+02
   3.280  0.2088E+01  0.1431E+02
   3.285  0.2136E+01  0.1432E+02
   3.290  0.2184E+01  0.1433E+02
   3.295  0.2232E+01  0.1434E+02
   3.300  0.2279E+01  0.1435E+02
   3.305  0.2327E+01  0.1437E+02
   3.310  0.2375E+01  0.1438E+02
   3.315  0.2423E+01  0.1439E+02
   3.320  0.2471E+01  0.1440E+02
   3.325  0.2518E+01  0.1441E+02
   3.330  0.2565E+01  0.1443E+02
   3.335  0.2612E+01  0.1444E+02
   3.340  0.2659E+01  0.1445E+02
   3.345  0.2706E+01  0.1447E+02
   3.350  0.2752E+01  0.1448E+02
   3.355  0.2798E+01  0.1449E+02
   3.360  0.2843E+01  0.1451E+02
   3.365  0.2888E+01  0.1452E+02
   3.370  0.2933E+01  0.1454E+02
   3.375  0.2977E+01  0.1455E+02
   3.380  0.3020E+01  0.1457E+02
   3.385  0.3063E+01  0.1458E+02
   3.390  0.3106E+01  0.1460E+02
   3.395  0.3148E+01  0.1461E+02
   3.400  0.3189E+01  0.1463E+02
   3.405  0.3230E+01  0.1465E+02
   3.410  0.3269E+01  0.1466E+02
   3.415  0.3309E+01  0.1468E+02
   3.420  0.3347E+01  0.1470E+02
   3.425  0.3385E+01  0.1471E+02
   3.430  0.3422E+01  0.1473E+02
   3.435  0.3459E+01  0.1475E+02
   3.440  0.3494E+01  0.1477E+02
   3.445  0.3529E+01  0.1478E+02
   3.450  0.3563E+01  0.1480E+02
   3.455  0.3596E+01  0.1482E+02
   3.460  0.3629E+01  0.1484E+02
   3.465  0.3661E+01  0.1486E+02
   3.470  0.3691E+01  0.1487E+02
   3.475  0.3722E+01  0.1489E+02
   3.480  0.3751E+01  0.1491E+02
   3.485  0.3780E+01  0.1493E+02
   3.490  0.3808E+01  0.1495E+02
   3.495  0.3835E+01  0.1497E+02
   3.500  0.3861E+01  0.1499E+02
   3.505  0.3887E+01  0.1501E+02
   3.510  0.3912E+01  0.1503E+02
   3.515  0.3936E+01  0.1505E+02
   3.520  0.3959E+01  0.1507E+02
   3.525  0.3982E+01  0.1509E+02
   3.530  0.4004E+01  0.1511E+02
   3.535  0.4026E+01  0.1513E+02
   3.540  0.4047E+01  0.1515E+02
   3.545  0.4067E+01  0.1517E+02
   3.550  0.4087E+01  0.1519E+02
   3.555  0.4106E+01  0.1521E+02
   3.560  0.4125E+01  0.1523E+02
   3.565  0.4143E+01  0.1525E+02
   3.570  0.4161E+01  0.1527E+02
   3.575  0.4179E+01  0.1529E+02
   3.580  0.4196E+01  0.1531E+02
   3.585  0.4212E+01  0.1533E+02
   3.590  0.4228E+01  0.1535E+02
   3.595  0.4244E+01  0.1538E+02
   3.600  0.4260E+01  0.1540E+02
   3.605  0.4275E+01  0.1542E+02
   3.610  0.4290E+01  0.1544E+02
   3.615  0.4305E+01  0.1546E+02
   3.620  0.4320E+01  0.1548E+02
   3.625  0.4334E+01  0.1550E+02
   3.630  0.4348E+01  0.1553E+02
   3.635  0.4362E+01  0.1555E+02
   3.640  0.4376E+01  0.1557E+02
   3.645  0.4390E+01  0.1559E+02
   3.650  0.4404E+01  0.1561E+02
   3.655  0.4418E+01  0.1564E+02
   3.660  0.4431E+01  0.1566E+02
   3.665  0.4445E+01  0.1568E+02
   3.670  0.4458E+01  0.1570E+02
   3.675  0.4472E+01  0.1572E+02
   3.680  0.4485E+01  0.1575E+02
   3.685  0.4499E+01  0.1577E+02
   3.690  0.4512E+01  0.1579E+02
   3.695  0.4526E+01  0.1581E+02
   3.700  0.4539E+01  0.1584E+02
   3.705  0.4553E+01  0.1586E+02
   3.710  0.4566E+01  0.1588E+02
   3.715  0.4580E+01  0.1591E+02
   3.720  0.4593E+01  0.1593E+02
   3.725  0.4606E+01  0.1595E+02
   3.730  0.4620E+01  0.1597E+02
   3.735  0.4633E+01  0.1600E+02
   3.740  0.4646E+01  0.1602E+02
   3.745  0.4659E+01  0.1604E+02
   3.750  0.4672E+01  0.1607E+02
   3.755  0.4685E+01  0.1609E+02
   3.760  0.4698E+01  0.1611E+02
   3.765  0.4711E+01  0.1614E+02
   3.770  0.4723E+01  0.1616E+02
   3.775  0.4736E+01  0.1619E+02
   3.780  0.4748E+01  0.1621E+02
   3.785  0.4760E+01  0.1623E+02
   3.790  0.4771E+01  0.1626E+02
   3.795  0.4783E+01  0.1628E+02
   3.800  0.4794E+01  0.1630E+02
   3.805  0.4805E+01  0.1633E+02
   3.810  0.4815E+01  0.1635E+02
   3.815  0.4825E+01  0.1638E+02
   3.820  0.4835E+01  0.1640E+02
   3.825  0.4844E+01  0.1643E+02
   3.830  0.4853E+01  0.1645E+02
   3.835  0.4861E+01  0.1647E+02
   3.840  0.4869E+01  0.1650E+02
   3.845  0.4876E+01  0.1652E+02
   3.850  0.4883E+01  0.1655E+02
   3.855  0.4889E+01  0.1657E+02
   3.860  0.4894E+01  0.1660E+02
   3.865  0.4899E+01  0.1662E+02
   3.870  0.4903E+01  0.1665E+02
   3.875  0.4907E+01  0.1667E+02
   3.880  0.4910E+01  0.1669E+02
   3.885  0.4912E+01  0.1672E+02
   3.890  0.4913E+01  0.1674E+02
   3.895  0.4914E+01  0.1677E+02
   3.900  0.4914E+01  0.1679E+02
   3.905  0.4913E+01  0.1682E+02
   3.910  0.4911E+01  0.1684E+02
   3.915  0.4909E+01  0.1687E+02
   3.920  0.4905E+01  0.1689E+02
   3.925  0.4901E+01  0.1692E+02
   3.930  0.4896E+01  0.1694E+02
   3.935  0.4890E+01  0.1696E+02
   3.940  0.4884E+01  0.1699E+02
   3.945  0.4876E+01  0.1701E+02
   3.950  0.4868E+01  0.1704E+02
   3.955  0.4859E+01  0.1706E+02
   3.960  0.4848E+01  0.1709E+02
   3.965  0.4838E+01  0.1711E+02
   3.970  0.4826E+01  0.1713E+02
   3.975  0.4813E+01  0.1716E+02
   3.980  0.4800E+01  0.1718E+02
   3.985  0.4785E+01  0.1721E+02
   3.990  0.4770E+01  0.1723E+02
   3.995  0.4754E+01  0.1725E+02
   4.000  0.4738E+01  0.1728E+02
   4.005  0.4720E+01  0.1730E+02
   4.010  0.4702E+01  0.1732E+02
   4.015  0.4683E+01  0.1735E+02
   4.020  0.4663E+01  0.1737E+02
   4.025  0.4642E+01  0.1739E+02
   4.030  0.4621E+01  0.1742E+02
   4.035  0.4599E+01  0.1744E+02
   4.040  0.4577E+01  0.1746E+02
   4.045  0.4553E+01  0.1749E+02
   4.050  0.4529E+01  0.1751E+02
   4.055  0.4505E+01  0.1753E+02
   4.060  0.4480E+01  0.1755E+02
   4.065  0.4454E+01  0.1758E+02
   4.070  0.4428E+01  0.1760E+02
   4.075  0.4401E+01  0.1762E+02
   4.080  0.4374E+01  0.1764E+02
   4.085  0.4346E+01  0.1766E+02
   4.090  0.4318E+01  0.1769E+02
   4.095  0.4289E+01  0.1771E+02
   4.100  0.4260E+01  0.1773E+02
   4.105  0.4231E+01  0.1775E+02
   4.110  0.4201E+01  0.1777E+02
   4.115  0.4171E+01  0.1779E+02
   4.120  0.4140E+01  0.1781E+02
   4.125  0.4110E+01  0.1783E+02
   4.130  0.4079E+01  0.1785E+02
   4.135  0.4047E+01  0.1787E+02
   4.140  0.4016E+01  0.1789E+02
   4.145  0.3984E+01  0.1791E+02
   4.150  0.3952E+01  0.1793E+02
   4.155  0.3920E+01  0.1795E+02
   4.160  0.3888E+01  0.1797E+02
   4.165  0.3856E+01  0.1799E+02
   4.170  0.3824E+01  0.1801E+02
   4.175  0.3791E+01  0.1803E+02
   4.180  0.3759E+01  0.1805E+02
   4.185  0.3726E+01  0.1807E+02
   4.190  0.3694E+01  0.1809E+02
   4.195  0.3662E+01  0.1810E+02
   4.200  0.3629E+01  0.1812E+02
   4.205  0.3597E+01  0.1814E+02
   4.210  0.3564E+01  0.1816E+02
   4.215  0.3532E+01  0.1818E+02
   4.220  0.3500E+01  0.1819E+02
   4.225  0.3468E+01  0.1821E+02
   4.230  0.3436E+01  0.1823E+02
   4.235  0.3404E+01  0.1824E+02
   4.240  0.3373E+01  0.1826E+02
   4.245  0.3341E+01  0.1828E+02
   4.250  0.3310E+01  0.1829E+02
   4.255  0.3279E+01  0.1831E+02
   4.260  0.3248E+01  0.1833E+02
   4.265  0.3217E+01  0.1834E+02
   4.270  0.3187E+01  0.1836E+02
   4.275  0.3156E+01  0.1837E+02
   4.280  0.3126E+01  0.1839E+02
   4.285  0.3097E+01  0.1841E+02
   4.290  0.3067E+01  0.1842E+02
   4.295  0.3038E+01  0.1844E+02
   4.300  0.3009E+01  0.1845E+02
   4.305  0.2980E+01  0.1847E+02
   4.310  0.2951E+01  0.1848E+02
   4.315  0.2923E+01  0.1850E+02
   4.320  0.2895E+01  0.1851E+02
   4.325  0.2867E+01  0.1852E+02
   4.330  0.2840E+01  0.1854E+02
   4.335  0.2813E+01  0.1855E+02
   4.340  0.2786E+01  0.1857E+02
   4.345  0.2759E+01  0.1858E+02
   4.350  0.2733E+01  0.1859E+02
   4.355  0.2707E+01  0.1861E+02
   4.360  0.2681E+01  0.1862E+02
   4.365  0.2656E+01  0.1863E+02
   4.370  0.2631E+01  0.1865E+02
   4.375  0.2606E+01  0.1866E+02
   4.380  0.2581E+01  0.1867E+02
   4.385  0.2557E+01  0.1869E+02
   4.390  0.2533E+01  0.1870E+02
   4.395  0.2509E+01  0.1871E+02
   4.400  0.2486E+01  0.1872E+02
   4.405  0.2463E+01  0.1874E+02
   4.410  0.2440E+01  0.1875E+02
   4.415  0.2418E+01  0.1876E+02
   4.420  0.2395E+01  0.1877E+02
   4.425  0.2373E+01  0.1878E+02
   4.430  0.2352E+01  0.1880E+02
   4.435  0.2330E+01  0.1881E+02
   4.440  0.2309E+01  0.1882E+02
   4.445  0.2288E+01  0.1883E+02
   4.450  0.2267E+01  0.1884E+02
   4.455  0.2247E+01  0.1885E+02
   4.460  0.2227E+01  0.1886E+02
   4.465  0.2207E+01  0.1888E+02
   4.470  0.2187E+01  0.1889E+02
   4.475  0.2168E+01  0.1890E+02
   4.480  0.2149E+01  0.1891E+02
   4.485  0.2130E+01  0.1892E+02
   4.490  0.2111E+01  0.1893E+02
   4.495  0.2092E+01  0.1894E+02
   4.500  0.2074E+01  0.1895E+02
   4.505  0.2056E+01  0.1896E+02
   4.510  0.2039E+01  0.1897E+02
   4.515  0.2021E+01  0.1898E+02
   4.520  0.2004E+01  0.1899E+02
   4.525  0.1987E+01  0.1900E+02
   4.530  0.1970E+01  0.1901E+02
   4.535  0.1953E+01  0.1902E+02
   4.540  0.1937E+01  0.1903E+02
   4.545  0.1920E+01  0.1904E+02
   4.550  0.1904E+01  0.1905E+02
   4.555  0.1889E+01  0.1906E+02
   4.560  0.1873E+01  0.1907E+02
   4.565  0.1858E+01  0.1908E+02
   4.570  0.1842E+01  0.1909E+02
   4.575  0.1827E+01  0.1910E+02
   4.580  0.1813E+01  0.1910E+02
   4.585  0.1798E+01  0.1911E+02
   4.590  0.1783E+01  0.1912E+02
   4.595  0.1769E+01  0.1913E+02
   4.600  0.1755E+01  0.1914E+02
   4.605  0.1741E+01  0.1915E+02
   4.610  0.1728E+01  0.1916E+02
   4.615  0.1714E+01  0.1917E+02
   4.620  0.1701E+01  0.1917E+02
   4.625  0.1688E+01  0.1918E+02
   4.630  0.1675E+01  0.1919E+02
   4.635  0.1662E+01  0.1920E+02
   4.640  0.1650E+01  0.1921E+02
   4.645  0.1638E+01  0.1922E+02
   4.650  0.1625E+01  0.1922E+02
   4.655  0.1614E+01  0.1923E+02
   4.660  0.1602E+01  0.1924E+02
   4.665  0.1590E+01  0.1925E+02
   4.670  0.1579E+01  0.1926E+02
   4.675  0.1568E+01  0.1926E+02
   4.680  0.1557E+01  0.1927E+02
   4.685  0.1546E+01  0.1928E+02
   4.690  0.1535E+01  0.1929E+02
   4.695  0.1524E+01  0.1929E+02
   4.700  0.1514E+01  0.1930E+02
   4.705  0.1504E+01  0.1931E+02
   4.710  0.1494E+01  0.1932E+02
   4.715  0.1484E+01  0.1932E+02
   4.720  0.1475E+01  0.1933E+02
   4.725  0.1465E+01  0.1934E+02
   4.730  0.1456E+01  0.1935E+02
   4.735  0.1447E+01  0.1935E+02
   4.740  0.1438E+01  0.1936E+02
   4.745  0.1429E+01  0.1937E+02
   4.750  0.1421E+01  0.1938E+02
   4.755  0.1412E+01  0.1938E+02
   4.760  0.1404E+01  0.1939E+02
   4.765  0.1396E+01  0.1940E+02
   4.770  0.1389E+01  0.1940E+02
   4.775  0.1381E+01  0.1941E+02
   4.780  0.1373E+01  0.1942E+02
   4.785  0.1366E+01  0.1942E+02
   4.790  0.1359E+01  0.1943E+02
   4.795  0.1352E+01  0.1944E+02
   4.800  0.1345E+01  0.1944E+02
   4.805  0.1339E+01  0.1945E+02
   4.810  0.1332E+01  0.1946E+02
   4.815  0.1326E+01  0.1946E+02
   4.820  0.1320E+01  0.1947E+02
   4.825  0.1314E+01  0.1948E+02
   4.830  0.1309E+01  0.1948E+02
   4.835  0.1303E+01  0.1949E+02
   4.840  0.1298E+01  0.1950E+02
   4.845  0.1293E+01  0.1950E+02
   4.850  0.1288E+01  0.1951E+02
   4.855  0.1283E+01  0.1952E+02
   4.860  0.1279E+01  0.1952E+02
   4.865  0.1275E+01  0.1953E+02
   4.870  0.1271E+01  0.1954E+02
   4.875  0.1267E+01  0.1954E+02
   4.880  0.1263E+01  0.1955E+02
   4.885  0.1260E+01  0.1955E+02
   4.890  0.1257E+01  0.1956E+02
   4.895  0.1254E+01  0.1957E+02
   4.900  0.1251E+01  0.1957E+02
   4.905  0.1248E+01  0.1958E+02
   4.910  0.1246E+01  0.1959E+02
   4.915  0.1244E+01  0.1959E+02
   4.920  0.1242E+01  0.1960E+02
   4.925  0.1241E+01  0.1960E+02
   4.930  0.1240E+01  0.1961E+02
   4.935  0.1239E+01  0.1962E+02
   4.940  0.1239E+01  0.1962E+02
   4.945  0.1238E+01  0.1963E+02
   4.950  0.1238E+01  0.1964E+02
   4.955  0.1239E+01  0.1964E+02
   4.960  0.1239E+01  0.1965E+02
   4.965  0.1240E+01  0.1965E+02
   4.970  0.1242E+01  0.1966E+02
   4.975  0.1244E+01  0.1967E+02
   4.980  0.1246E+01  0.1967E+02
   4.985  0.1248E+01  0.1968E+02
   4.990  0.1251E+01  0.1968E+02
   4.995  0.1255E+01  0.1969E+02
   5.000  0.1259E+01  0.1970E+02
   5.005  0.1263E+01  0.1970E+02
   5.010  0.1268E+01  0.1971E+02
   5.015  0.1273E+01  0.1972E+02
   5.020  0.1279E+01  0.1972E+02
   5.025  0.1285E+01  0.1973E+02
   5.030  0.1292E+01  0.1974E+02
   5.035  0.1299E+01  0.1974E+02
   5.040  0.1307E+01  0.1975E+02
   5.045  0.1315E+01  0.1976E+02
   5.050  0.1324E+01  0.1976E+02
   5.055  0.1334E+01  0.1977E+02
   5.060  0.1344E+01  0.1978E+02
   5.065  0.1355E+01  0.1978E+02
   5.070  0.1366E+01  0.1979E+02
   5.075  0.1378E+01  0.1980E+02
   5.080  0.1391E+01  0.1980E+02
   5.085  0.1404E+01  0.1981E+02
   5.090  0.1418E+01  0.1982E+02
   5.095  0.1433E+01  0.1982E+02
   5.100  0.1448E+01  0.1983E+02
   5.105  0.1465E+01  0.1984E+02
   5.110  0.1482E+01  0.1985E+02
   5.115  0.1499E+01  0.1985E+02
   5.120  0.1518E+01  0.1986E+02
   5.125  0.1537E+01  0.1987E+02
   5.130  0.1557E+01  0.1988E+02
   5.135  0.1578E+01  0.1988E+02
   5.140  0.1599E+01  0.1989E+02
   5.145  0.1621E+01  0.1990E+02
   5.150  0.1644E+01  0.1991E+02
   5.155  0.1668E+01  0.1992E+02
   5.160  0.1693E+01  0.1993E+02
   5.165  0.1718E+01  0.1993E+02
   5.170  0.1744E+01  0.1994E+02
   5.175  0.1771E+01  0.1995E+02
   5.180  0.1798E+01  0.1996E+02
   5.185  0.1827E+01  0.1997E+02
   5.190  0.1856E+01  0.1998E+02
   5.195  0.1886E+01  0.1999E+02
   5.200  0.1916E+01  0.2000E+02
   5.205  0.1947E+01  0.2001E+02
   5.210  0.1979E+01  0.2002E+02
   5.215  0.2012E+01  0.2003E+02
   5.220  0.2045E+01  0.2004E+02
   5.225  0.2078E+01  0.2005E+02
   5.230  0.2113E+01  0.2006E+02
   5.235  0.2148E+01  0.2007E+02
   5.240  0.2183E+01  0.2008E+02
   5.245  0.2219E+01  0.2009E+02
   5.250  0.2255E+01  0.2010E+02
   5.255  0.2292E+01  0.2011E+02
   5.260  0.2329E+01  0.2013E+02
   5.265  0.2367E+01  0.2014E+02
   5.270  0.2405E+01  0.2015E+02
   5.275  0.2443E+01  0.2016E+02
   5.280  0.2481E+01  0.2017E+02
   5.285  0.2520E+01  0.2019E+02
   5.290  0.2558E+01  0.2020E+02
   5.295  0.2597E+01  0.2021E+02
   5.300  0.2636E+01  0.2023E+02
   5.305  0.2675E+01  0.2024E+02
   5.310  0.2714E+01  0.2025E+02
   5.315  0.2753E+01  0.2027E+02
   5.320  0.2792E+01  0.2028E+02
   5.325  0.2830E+01  0.2030E+02
   5.330  0.2868E+01  0.2031E+02
   5.335  0.2906E+01  0.2032E+02
   5.340  0.2944E+01  0.2034E+02
   5.345  0.2981E+01  0.2035E+02
   5.350  0.3018E+01  0.2037E+02
   5.355  0.3054E+01  0.2038E+02
   5.360  0.3090E+01  0.2040E+02
   5.365  0.3125E+01  0.2041E+02
   5.370  0.3160E+01  0.2043E+02
   5.375  0.3194E+01  0.2045E+02
   5.380  0.3227E+01  0.2046E+02
   5.385  0.3259E+01  0.2048E+02
   5.390  0.3290E+01  0.2050E+02
   5.395  0.3321E+01  0.2051E+02
   5.400  0.3350E+01  0.2053E+02
   5.405  0.3379E+01  0.2055E+02
   5.410  0.3406E+01  0.2056E+02
   5.415  0.3432E+01  0.2058E+02
   5.420  0.3458E+01  0.2060E+02
   5.425  0.3482E+01  0.2061E+02
   5.430  0.3505E+01  0.2063E+02
   5.435  0.3526E+01  0.2065E+02
   5.440  0.3547E+01  0.2067E+02
   5.445  0.3566E+01  0.2069E+02
   5.450  0.3583E+01  0.2070E+02
   5.455  0.3600E+01  0.2072E+02
   5.460  0.3615E+01  0.2074E+02
   5.465  0.3628E+01  0.2076E+02
   5.470  0.3640E+01  0.2078E+02
   5.475  0.3651E+01  0.2079E+02
   5.480  0.3660E+01  0.2081E+02
   5.485  0.3668E+01  0.2083E+02
   5.490  0.3674E+01  0.2085E+02
   5.495  0.3678E+01  0.2087E+02
   5.500  0.3681E+01  0.2089E+02
   5.505  0.3683E+01  0.2090E+02
   5.510  0.3683E+01  0.2092E+02
   5.515  0.3681E+01  0.2094E+02
   5.520  0.3678E+01  0.2096E+02
   5.525  0.3674E+01  0.2098E+02
   5.530  0.3668E+01  0.2100E+02
   5.535  0.3660E+01  0.2101E+02
   5.540  0.3651E+01  0.2103E+02
   5.545  0.3641E+01  0.2105E+02
   5.550  0.3629E+01  0.2107E+02
   5.555  0.3615E+01  0.2109E+02
   5.560  0.3601E+01  0.2111E+02
   5.565  0.3584E+01  0.2112E+02
   5.570  0.3567E+01  0.2114E+02
   5.575  0.3548E+01  0.2116E+02
   5.580  0.3528E+01  0.2118E+02
   5.585  0.3506E+01  0.2119E+02
   5.590  0.3484E+01  0.2121E+02
   5.595  0.3460E+01  0.2123E+02
   5.600  0.3435E+01  0.2125E+02
   5.605  0.3408E+01  0.2126E+02
   5.610  0.3381E+01  0.2128E+02
   5.615  0.3353E+01  0.2130E+02
   5.620  0.3323E+01  0.2131E+02
   5.625  0.3293E+01  0.2133E+02
   5.630  0.3262E+01  0.2135E+02
   5.635  0.3230E+01  0.2136E+02
   5.640  0.3197E+01  0.2138E+02
   5.645  0.3163E+01  0.2139E+02
   5.650  0.3129E+01  0.2141E+02
   5.655  0.3094E+01  0.2142E+02
   5.660  0.3058E+01  0.2144E+02
   5.665  0.3021E+01  0.2146E+02
   5.670  0.2984E+01  0.2147E+02
   5.675  0.2947E+01  0.2148E+02
   5.680  0.2909E+01  0.2150E+02
   5.685  0.2871E+01  0.2151E+02
   5.690  0.2832E+01  0.2153E+02
   5.695  0.2793E+01  0.2154E+02
   5.700  0.2754E+01  0.2156E+02
   5.705  0.2714E+01  0.2157E+02
   5.710  0.2675E+01  0.2158E+02
   5.715  0.2635E+01  0.2160E+02
   5.720  0.2595E+01  0.2161E+02
   5.725  0.2555E+01  0.2162E+02
   5.730  0.2515E+01  0.2163E+02
   5.735  0.2475E+01  0.2165E+02
   5.740  0.2436E+01  0.2166E+02
   5.745  0.2396E+01  0.2167E+02
   5.750  0.2356E+01  0.2168E+02
   5.755  0.2317E+01  0.2169E+02
   5.760  0.2278E+01  0.2171E+02
   5.765  0.2239E+01  0.2172E+02
   5.770  0.2201E+01  0.2173E+02
   5.775  0.2162E+01  0.2174E+02
   5.780  0.2125E+01  0.2175E+02
   5.785  0.2087E+01  0.2176E+02
   5.790  0.2050E+01  0.2177E+02
   5.795  0.2014E+01  0.2178E+02
   5.800  0.1978E+01  0.2179E+02
   5.805  0.1942E+01  0.2180E+02
   5.810  0.1907E+01  0.2181E+02
   5.815  0.1873E+01  0.2182E+02
   5.820  0.1839E+01  0.2183E+02
   5.825  0.1806E+01  0.2184E+02
   5.830  0.1773E+01  0.2185E+02
   5.835  0.1741E+01  0.2185E+02
   5.840  0.1710E+01  0.2186E+02
   5.845  0.1679E+01  0.2187E+02
   5.850  0.1649E+01  0.2188E+02
   5.855  0.1620E+01  0.2189E+02
   5.860  0.1591E+01  0.2190E+02
   5.865  0.1563E+01  0.2190E+02
   5.870  0.1536E+01  0.2191E+02
   5.875  0.1510E+01  0.2192E+02
   5.880  0.1484E+01  0.2193E+02
   5.885  0.1459E+01  0.2193E+02
   5.890  0.1435E+01  0.2194E+02
   5.895  0.1412E+01  0.2195E+02
   5.900  0.1389E+01  0.2195E+02
   5.905  0.1367E+01  0.2196E+02
   5.910  0.1346E+01  0.2197E+02
   5.915  0.1326E+01  0.2197E+02
   5.920  0.1306E+01  0.2198E+02
   5.925  0.1287E+01  0.2199E+02
   5.930  0.1269E+01  0.2199E+02
   5.935  0.1252E+01  0.2200E+02
   5.940  0.1236E+01  0.2201E+02
   5.945  0.1220E+01  0.2201E+02
   5.950  0.1205E+01  0.2202E+02
   5.955  0.1190E+01  0.2202E+02
   5.960  0.1177E+01  0.2203E+02
   5.965  0.1164E+01  0.2204E+02
   5.970  0.1151E+01  0.2204E+02
   5.975  0.1140E+01  0.2205E+02
   5.980  0.1129E+01  0.2205E+02
   5.985  0.1119E+01  0.2206E+02
   5.990  0.1109E+01  0.2206E+02
   5.995  0.1101E+01  0.2207E+02
   6.000  0.1092E+01  0.2208E+02
   6.005  0.1085E+01  0.2208E+02
   6.010  0.1078E+01  0.2209E+02
   6.015  0.1071E+01  0.2209E+02
   6.020  0.1066E+01  0.2210E+02
   6.025  0.1061E+01  0.2210E+02
   6.030  0.1056E+01  0.2211E+02
   6.035  0.1052E+01  0.2211E+02
   6.040  0.1048E+01  0.2212E+02
   6.045  0.1045E+01  0.2212E+02
   6.050  0.1043E+01  0.2213E+02
   6.055  0.1041E+01  0.2213E+02
   6.060  0.1039E+01  0.2214E+02
   6.065  0.1038E+01  0.2214E+02
   6.070  0.1038E+01  0.2215E+02
   6.075  0.1038E+01  0.2215E+02
   6.080  0.1038E+01  0.2216E+02
   6.085  0.1039E+01  0.2216E+02
   6.090  0.1040E+01  0.2217E+02
   6.095  0.1042E+01  0.2218E+02
   6.100  0.1043E+01  0.2218E+02
   6.105  0.1046E+01  0.2219E+02
   6.110  0.1048E+01  0.2219E+02
   6.115  0.1051E+01  0.2220E+02
   6.120  0.1055E+01  0.2220E+02
   6.125  0.1058E+01  0.2221E+02
   6.130  0.1062E+01  0.2221E+02
   6.135  0.1066E+01  0.2222E+02
   6.140  0.1071E+01  0.2222E+02
   6.145  0.1075E+01  0.2223E+02
   6.150  0.1080E+01  0.2223E+02
   6.155  0.1086E+01  0.2224E+02
   6.160  0.1091E+01  0.2224E+02
   6.165  0.1097E+01  0.2225E+02
   6.170  0.1103E+01  0.2226E+02
   6.175  0.1109E+01  0.2226E+02
   6.180  0.1115E+01  0.2227E+02
   6.185  0.1121E+01  0.2227E+02
   6.190  0.1128E+01  0.2228E+02
   6.195  0.1135E+01  0.2228E+02
   6.200  0.1141E+01  0.2229E+02
   6.205  0.1148E+01  0.2229E+02
   6.210  0.1155E+01  0.2230E+02
   6.215  0.1163E+01  0.2231E+02
   6.220  0.1170E+01  0.2231E+02
   6.225  0.1177E+01  0.2232E+02
   6.230  0.1185E+01  0.2232E+02
   6.235  0.1193E+01  0.2233E+02
   6.240  0.1200E+01  0.2234E+02
   6.245  0.1208E+01  0.2234E+02
   6.250  0.1216E+01  0.2235E+02
   6.255  0.1224E+01  0.2235E+02
   6.260  0.1231E+01  0.2236E+02
   6.265  0.1239E+01  0.2237E+02
   6.270  0.1247E+01  0.2237E+02
   6.275  0.1255E+01  0.2238E+02
   6.280  0.1263E+01  0.2239E+02
   6.285  0.1271E+01  0.2239E+02
   6.290  0.1279E+01  0.2240E+02
   6.295  0.1287E+01  0.2240E+02
   6.300  0.1295E+01  0.2241E+02
   6.305  0.1303E+01  0.2242E+02
   6.310  0.1311E+01  0.2242E+02
   6.315  0.1319E+01  0.2243E+02
   6.320  0.1327E+01  0.2244E+02
   6.325  0.1335E+01  0.2244E+02
   6.330  0.1343E+01  0.2245E+02
   6.335  0.1351E+01  0.2246E+02
   6.340  0.1359E+01  0.2246E+02
   6.345  0.1367E+01  0.2247E+02
   6.350  0.1375E+01  0.2248E+02
   6.355  0.1382E+01  0.2248E+02
   6.360  0.1390E+01  0.2249E+02
   6.365  0.1398E+01  0.2250E+02
   6.370  0.1405E+01  0.2251E+02
   6.375  0.1413E+01  0.2251E+02
   6.380  0.1420E+01  0.2252E+02
   6.385  0.1428E+01  0.2253E+02
   6.390  0.1435E+01  0.2253E+02
   6.395  0.1442E+01  0.2254E+02
   6.400  0.1449E+01  0.2255E+02
   6.405  0.1456E+01  0.2256E+02
   6.410  0.1464E+01  0.2256E+02
   6.415  0.1471E+01  0.2257E+02
   6.420  0.1477E+01  0.2258E+02
   6.425  0.1484E+01  0.2259E+02
   6.430  0.1491E+01  0.2259E+02
   6.435  0.1498E+01  0.2260E+02
   6.440  0.1505E+01  0.2261E+02
   6.445  0.1511E+01  0.2262E+02
   6.450  0.1518E+01  0.2262E+02
   6.455  0.1524E+01  0.2263E+02
   6.460  0.1530E+01  0.2264E+02
   6.465  0.1537E+01  0.2265E+02
   6.470  0.1543E+01  0.2265E+02
   6.475  0.1549E+01  0.2266E+02
   6.480  0.1555E+01  0.2267E+02
   6.485  0.1561E+01  0.2268E+02
   6.490  0.1567E+01  0.2269E+02
   6.495  0.1573E+01  0.2269E+02
   6.500  0.1579E+01  0.2270E+02
   6.505  0.1585E+01  0.2271E+02
   6.510  0.1590E+01  0.2272E+02
   6.515  0.1596E+01  0.2272E+02
   6.520  0.1602E+01  0.2273E+02
   6.525  0.1607E+01  0.2274E+02
   6.530  0.1613E+01  0.2275E+02
   6.535  0.1618E+01  0.2276E+02
   6.540  0.1623E+01  0.2276E+02
   6.545  0.1629E+01  0.2277E+02
   6.550  0.1634E+01  0.2278E+02
   6.555  0.1639E+01  0.2279E+02
   6.560  0.1644E+01  0.2280E+02
   6.565  0.1649E+01  0.2281E+02
   6.570  0.1654E+01  0.2281E+02
   6.575  0.1659E+01  0.2282E+02
   6.580  0.1664E+01  0.2283E+02
   6.585  0.1669E+01  0.2284E+02
   6.590  0.1674E+01  0.2285E+02
   6.595  0.1679E+01  0.2286E+02
   6.600  0.1684E+01  0.2286E+02
   6.605  0.1689E+01  0.2287E+02
   6.610  0.1693E+01  0.2288E+02
   6.615  0.1698E+01  0.2289E+02
   6.620  0.1703E+01  0.2290E+02
   6.625  0.1707E+01  0.2291E+02
   6.630  0.1712E+01  0.2292E+02
   6.635  0.1717E+01  0.2292E+02
   6.640  0.1721E+01  0.2293E+02
   6.645  0.1726E+01  0.2294E+02
   6.650  0.1730E+01  0.2295E+02
   6.655  0.1735E+01  0.2296E+02
   6.660  0.1739E+01  0.2297E+02
   6.665  0.1744E+01  0.2298E+02
   6.670  0.1748E+01  0.2298E+02
   6.675  0.1753E+01  0.2299E+02
   6.680  0.1757E+01  0.2300E+02
   6.685  0.1762E+01  0.2301E+02
   6.690  0.1766E+01  0.2302E+02
   6.695  0.1771E+01  0.2303E+02
   6.700  0.1775E+01  0.2304E+02
   6.705  0.1779E+01  0.2305E+02
   6.710  0.1784E+01  0.2306E+02
   6.715  0.1788E+01  0.2306E+02
   6.720  0.1792E+01  0.2307E+02
   6.725  0.1797E+01  0.2308E+02
   6.730  0.1801E+01  0.2309E+02
   6.735  0.1805E+01  0.2310E+02
   6.740  0.1810E+01  0.2311E+02
   6.745  0.1814E+01  0.2312E+02
   6.750  0.1818E+01  0.2313E+02
   6.755  0.1822E+01  0.2314E+02
   6.760  0.1827E+01  0.2315E+02
   6.765  0.1831E+01  0.2315E+02
   6.770  0.1835E+01  0.2316E+02
   6.775  0.1839E+01  0.2317E+02
   6.780  0.1843E+01  0.2318E+02
   6.785  0.1848E+01  0.2319E+02
   6.790  0.1852E+01  0.2320E+02
   6.795  0.1856E+01  0.2321E+02
   6.800  0.1860E+01  0.2322E+02
   6.805  0.1864E+01  0.2323E+02
   6.810  0.1868E+01  0.2324E+02
   6.815  0.1872E+01  0.2325E+02
   6.820  0.1876E+01  0.2326E+02
   6.825  0.1880E+01  0.2327E+02
   6.830  0.1884E+01  0.2328E+02
   6.835  0.1888E+01  0.2329E+02
   6.840  0.1892E+01  0.2329E+02
   6.845  0.1895E+01  0.2330E+02
   6.850  0.1899E+01  0.2331E+02
   6.855  0.1903E+01  0.2332E+02
   6.860  0.1907E+01  0.2333E+02
   6.865  0.1910E+01  0.2334E+02
   6.870  0.1914E+01  0.2335E+02
   6.875  0.1918E+01  0.2336E+02
   6.880  0.1921E+01  0.2337E+02
   6.885  0.1925E+01  0.2338E+02
   6.890  0.1928E+01  0.2339E+02
   6.895  0.1932E+01  0.2340E+02
   6.900  0.1935E+01  0.2341E+02
   6.905  0.1938E+01  0.2342E+02
   6.910  0.1941E+01  0.2343E+02
   6.915  0.1945E+01  0.2344E+02
   6.920  0.1948E+01  0.2345E+02
   6.925  0.1951E+01  0.2346E+02
   6.930  0.1954E+01  0.2347E+02
   6.935  0.1957E+01  0.2348E+02
   6.940  0.1960E+01  0.2349E+02
   6.945  0.1963E+01  0.2350E+02
   6.950  0.1965E+01  0.2351E+02
   6.955  0.1968E+01  0.2352E+02
   6.960  0.1971E+01  0.2353E+02
   6.965  0.1973E+01  0.2354E+02
   6.970  0.1976E+01  0.2355E+02
   6.975  0.1978E+01  0.2356E+02
   6.980  0.1981E+01  0.2357E+02
   6.985  0.1983E+01  0.2358E+02
   6.990  0.1985E+01  0.2359E+02
   6.995  0.1987E+01  0.2360E+02
   7.000  0.1990E+01  0.2361E+02
   7.005  0.1992E+01  0.2362E+02
   7.010  0.1994E+01  0.2363E+02
   7.015  0.1995E+01  0.2364E+02
   7.020  0.1997E+01  0.2365E+02
   7.025  0.1999E+01  0.2366E+02
   7.030  0.2001E+01  0.2367E+02
   7.035  0.2002E+01  0.2368E+02
   7.040  0.2004E+01  0.2369E+02
   7.045  0.2006E+01  0.2370E+02
   7.050  0.2007E+01  0.2371E+02
   7.055  0.2008E+01  0.2372E+02
   7.060  0.2010E+01  0.2373E+02
   7.065  0.2011E+01  0.2374E+02
   7.070  0.2012E+01  0.2375E+02
   7.075  0.2013E+01  0.2376E+02
   7.080  0.2014E+01  0.2377E+02
   7.085  0.2015E+01  0.2378E+02
   7.090  0.2016E+01  0.2379E+02
   7.095  0.2017E+01  0.2380E+02
   7.100  0.2018E+01  0.2381E+02
   7.105  0.2018E+01  0.2382E+02
   7.110  0.2019E+01  0.2383E+02
   7.115  0.2020E+01  0.2384E+02
   7.120  0.2020E+01  0.2385E+02
   7.125  0.2021E+01  0.2386E+02
   7.130  0.2021E+01  0.2387E+02
   7.135  0.2021E+01  0.2388E+02
   7.140  0.2022E+01  0.2389E+02
   7.145  0.2022E+01  0.2390E+02
   7.150  0.2022E+01  0.2391E+02
   7.155  0.2022E+01  0.2392E+02
   7.160  0.2023E+01  0.2393E+02
   7.165  0.2023E+01  0.2394E+02
   7.170  0.2023E+01  0.2395E+02
   7.175  0.2023E+01  0.2396E+02
   7.180  0.2023E+01  0.2397E+02
   7.185  0.2023E+01  0.2398E+02
   7.190  0.2023E+01  0.2399E+02
   7.195  0.2023E+01  0.2400E+02
   7.200  0.2022E+01  0.2401E+02
   7.205  0.2022E+01  0.2402E+02
   7.210  0.2022E+01  0.2403E+02
   7.215  0.2022E+01  0.2404E+02
   7.220  0.2022E+01  0.2405E+02
   7.225  0.2021E+01  0.2406E+02
   7.230  0.2021E+01  0.2407E+02
   7.235  0.2021E+01  0.2408E+02
   7.240  0.2020E+01  0.2409E+02
   7.245  0.2020E+01  0.2410E+02
   7.250  0.2020E+01  0.2411E+02
   7.255  0.2020E+01  0.2412E+02
   7.260  0.2019E+01  0.2413E+02
   7.265  0.2019E+01  0.2414E+02
   7.270  0.2019E+01  0.2415E+02
   7.275  0.2018E+01  0.2416E+02
   7.280  0.2018E+01  0.2417E+02
   7.285  0.2018E+01  0.2418E+02
   7.290  0.2018E+01  0.2419E+02
   7.295  0.2018E+01  0.2420E+02
   7.300  0.2017E+01  0.2421E+02
   7.305  0.2017E+01  0.2422E+02
   7.310  0.2017E+01  0.2423E+02
   7.315  0.2017E+01  0.2424E+02
   7.320  0.2017E+01  0.2425E+02
   7.325  0.2017E+01  0.2426E+02
   7.330  0.2017E+01  0.2427E+02
   7.335  0.2017E+01  0.2428E+02
   7.340  0.2017E+01  0.2429E+02
   7.345  0.2018E+01  0.2430E+02
   7.350  0.2018E+01  0.2431E+02
   7.355  0.2018E+01  0.2432E+02
   7.360  0.2019E+01  0.2433E+02
   7.365  0.2019E+01  0.2434E+02
   7.370  0.2020E+01  0.2435E+02
   7.375  0.2020E+01  0.2436E+02
   7.380  0.2021E+01  0.2437E+02
   7.385  0.2022E+01  0.2438E+02
   7.390  0.2023E+01  0.2439E+02
   7.395  0.2024E+01  0.2440E+02
   7.400  0.2025E+01  0.2441E+02
   7.405  0.2026E+01  0.2442E+02
   7.410  0.2027E+01  0.2443E+02
   7.415  0.2029E+01  0.2444E+02
   7.420  0.2030E+01  0.2445E+02
   7.425  0.2032E+01  0.2446E+02
   7.430  0.2033E+01  0.2447E+02
   7.435  0.2035E+01  0.2448E+02
   7.440  0.2037E+01  0.2449E+02
   7.445  0.2039E+01  0.2450E+02
   7.450  0.2041E+01  0.2451E+02
   7.455  0.2043E+01  0.2452E+02
   7.460  0.2045E+01  0.2453E+02
   7.465  0.2048E+01  0.2455E+02
   7.470  0.2050E+01  0.2456E+02
   7.475  0.2053E+01  0.2457E+02
   7.480  0.2056E+01  0.2458E+02
   7.485  0.2059E+01  0.2459E+02
   7.490  0.2062E+01  0.2460E+02
   7.495  0.2065E+01  0.2461E+02
   7.500  0.2068E+01  0.2462E+02
   7.505  0.2072E+01  0.2463E+02
   7.510  0.2075E+01  0.2464E+02
   7.515  0.2079E+01  0.2465E+02
   7.520  0.2083E+01  0.2466E+02
   7.525  0.2087E+01  0.2467E+02
   7.530  0.2091E+01  0.2468E+02
   7.535  0.2095E+01  0.2469E+02
   7.540  0.2100E+01  0.2470E+02
   7.545  0.2104E+01  0.2471E+02
   7.550  0.2109E+01  0.2472E+02
   7.555  0.2114E+01  0.2473E+02
   7.560  0.2119E+01  0.2474E+02
   7.565  0.2124E+01  0.2475E+02
   7.570  0.2129E+01  0.2476E+02
   7.575  0.2135E+01  0.2477E+02
   7.580  0.2140E+01  0.2479E+02
   7.585  0.2146E+01  0.2480E+02
   7.590  0.2152E+01  0.2481E+02
   7.595  0.2158E+01  0.2482E+02
   7.600  0.2164E+01  0.2483E+02
   7.605  0.2170E+01  0.2484E+02
   7.610  0.2177E+01  0.2485E+02
   7.615  0.2183E+01  0.2486E+02
   7.620  0.2190E+01  0.2487E+02
   7.625  0.2197E+01  0.2488E+02
   7.630  0.2204E+01  0.2489E+02
   7.635  0.2211E+01  0.2491E+02
   7.640  0.2219E+01  0.2492E+02
   7.645  0.2226E+01  0.2493E+02
   7.650  0.2234E+01  0.2494E+02
   7.655  0.2242E+01  0.2495E+02
   7.660  0.2250E+01  0.2496E+02
   7.665  0.2258E+01  0.2497E+02
   7.670  0.2267E+01  0.2498E+02
   7.675  0.2275E+01  0.2500E+02
   7.680  0.2284E+01  0.2501E+02
   7.685  0.2293E+01  0.2502E+02
   7.690  0.2302E+01  0.2503E+02
   7.695  0.2311E+01  0.2504E+02
   7.700  0.2320E+01  0.2505E+02
   7.705  0.2329E+01  0.2506E+02
   7.710  0.2339E+01  0.2508E+02
   7.715  0.2349E+01  0.2509E+02
   7.720  0.2358E+01  0.2510E+02
   7.725  0.2368E+01  0.2511E+02
   7.730  0.2379E+01  0.2512E+02
   7.735  0.2389E+01  0.2514E+02
   7.740  0.2399E+01  0.2515E+02
   7.745  0.2410E+01  0.2516E+02
   7.750  0.2420E+01  0.2517E+02
   7.755  0.2431E+01  0.2518E+02
   7.760  0.2442E+01  0.2520E+02
   7.765  0.2453E+01  0.2521E+02
   7.770  0.2464E+01  0.2522E+02
   7.775  0.2475E+01  0.2523E+02
   7.780  0.2487E+01  0.2525E+02
   7.785  0.2498E+01  0.2526E+02
   7.790  0.2510E+01  0.2527E+02
   7.795  0.2521E+01  0.2528E+02
   7.800  0.2533E+01  0.2530E+02
   7.805  0.2545E+01  0.2531E+02
   7.810  0.2556E+01  0.2532E+02
   7.815  0.2568E+01  0.2533E+02
   7.820  0.2580E+01  0.2535E+02
   7.825  0.2592E+01  0.2536E+02
   7.830  0.2604E+01  0.2537E+02
   7.835  0.2616E+01  0.2539E+02
   7.840  0.2628E+01  0.2540E+02
   7.845  0.2640E+01  0.2541E+02
   7.850  0.2652E+01  0.2543E+02
   7.855  0.2664E+01  0.2544E+02
   7.860  0.2676E+01  0.2545E+02
   7.865  0.2688E+01  0.2547E+02
   7.870  0.2700E+01  0.2548E+02
   7.875  0.2712E+01  0.2549E+02
   7.880  0.2724E+01  0.2551E+02
   7.885  0.2736E+01  0.2552E+02
   7.890  0.2747E+01  0.2553E+02
   7.895  0.2759E+01  0.2555E+02
   7.900  0.2771E+01  0.2556E+02
   7.905  0.2782E+01  0.2558E+02
   7.910  0.2793E+01  0.2559E+02
   7.915  0.2804E+01  0.2560E+02
   7.920  0.2816E+01  0.2562E+02
   7.925  0.2826E+01  0.2563E+02
   7.930  0.2837E+01  0.2565E+02
   7.935  0.2848E+01  0.2566E+02
   7.940  0.2858E+01  0.2567E+02
   7.945  0.2869E+01  0.2569E+02
   7.950  0.2879E+01  0.2570E+02
   7.955  0.2889E+01  0.2572E+02
   7.960  0.2898E+01  0.2573E+02
   7.965  0.2908E+01  0.2575E+02
   7.970  0.2917E+01  0.2576E+02
   7.975  0.2926E+01  0.2578E+02
   7.980  0.2935E+01  0.2579E+02
   7.985  0.2944E+01  0.2580E+02
   7.990  0.2952E+01  0.2582E+02
   7.995  0.2960E+01  0.2583E+02
   8.000  0.2968E+01  0.2585E+02
   8.005  0.2975E+01  0.2586E+02
   8.010  0.2983E+01  0.2588E+02
   8.015  0.2990E+01  0.2589E+02
   8.020  0.2997E+01  0.2591E+02
   8.025  0.3003E+01  0.2592E+02
   8.030  0.3009E+01  0.2594E+02
   8.035  0.3015E+01  0.2595E+02
   8.040  0.3021E+01  0.2597E+02
   8.045  0.3026E+01  0.2598E+02
   8.050  0.3032E+01  0.2600E+02
   8.055  0.3036E+01  0.2601E+02
   8.060  0.3041E+01  0.2603E+02
   8.065  0.3045E+01  0.2605E+02
   8.070  0.3049E+01  0.2606E+02
   8.075  0.3053E+01  0.2608E+02
   8.080  0.3056E+01  0.2609E+02
   8.085  0.3059E+01  0.2611E+02
   8.090  0.3062E+01  0.2612E+02
   8.095  0.3065E+01  0.2614E+02
   8.100  0.3067E+01  0.2615E+02
   8.105  0.3069E+01  0.2617E+02
   8.110  0.3071E+01  0.2618E+02
   8.115  0.3073E+01  0.2620E+02
   8.120  0.3074E+01  0.2621E+02
   8.125  0.3075E+01  0.2623E+02
   8.130  0.3076E+01  0.2624E+02
   8.135  0.3077E+01  0.2626E+02
   8.140  0.3078E+01  0.2628E+02
   8.145  0.3078E+01  0.2629E+02
   8.150  0.3078E+01  0.2631E+02
   8.155  0.3078E+01  0.2632E+02
   8.160  0.3078E+01  0.2634E+02
   8.165  0.3077E+01  0.2635E+02
   8.170  0.3077E+01  0.2637E+02
   8.175  0.3076E+01  0.2638E+02
   8.180  0.3075E+01  0.2640E+02
   8.185  0.3074E+01  0.2641E+02
   8.190  0.3073E+01  0.2643E+02
   8.195  0.3072E+01  0.2644E+02
   8.200  0.3070E+01  0.2646E+02
   8.205  0.3069E+01  0.2648E+02
   8.210  0.3067E+01  0.2649E+02
   8.215  0.3066E+01  0.2651E+02
   8.220  0.3064E+01  0.2652E+02
   8.225  0.3063E+01  0.2654E+02
   8.230  0.3061E+01  0.2655E+02
   8.235  0.3060E+01  0.2657E+02
   8.240  0.3058E+01  0.2658E+02
   8.245  0.3056E+01  0.2660E+02
   8.250  0.3055E+01  0.2661E+02
   8.255  0.3053E+01  0.2663E+02
   8.260  0.3052E+01  0.2664E+02
   8.265  0.3050E+01  0.2666E+02
   8.270  0.3049E+01  0.2667E+02
   8.275  0.3048E+01  0.2669E+02
   8.280  0.3047E+01  0.2670E+02
   8.285  0.3046E+01  0.2672E+02
   8.290  0.3045E+01  0.2673E+02
   8.295  0.3044E+01  0.2675E+02
   8.300  0.3043E+01  0.2677E+02
   8.305  0.3043E+01  0.2678E+02
   8.310  0.3042E+01  0.2680E+02
   8.315  0.3042E+01  0.2681E+02
   8.320  0.3042E+01  0.2683E+02
   8.325  0.3042E+01  0.2684E+02
   8.330  0.3042E+01  0.2686E+02
   8.335  0.3043E+01  0.2687E+02
   8.340  0.3043E+01  0.2689E+02
   8.345  0.3044E+01  0.2690E+02
   8.350  0.3045E+01  0.2692E+02
   8.355  0.3047E+01  0.2693E+02
   8.360  0.3048E+01  0.2695E+02
   8.365  0.3050E+01  0.2696E+02
   8.370  0.3052E+01  0.2698E+02
   8.375  0.3054E+01  0.2699E+02
   8.380  0.3057E+01  0.2701E+02
   8.385  0.3059E+01  0.2702E+02
   8.390  0.3062E+01  0.2704E+02
   8.395  0.3065E+01  0.2705E+02
   8.400  0.3069E+01  0.2707E+02
   8.405  0.3072E+01  0.2709E+02
   8.410  0.3076E+01  0.2710E+02
   8.415  0.3080E+01  0.2712E+02
   8.420  0.3084E+01  0.2713E+02
   8.425  0.3089E+01  0.2715E+02
   8.430  0.3093E+01  0.2716E+02
   8.435  0.3098E+01  0.2718E+02
   8.440  0.3103E+01  0.2719E+02
   8.445  0.3108E+01  0.2721E+02
   8.450  0.3114E+01  0.2722E+02
   8.455  0.3120E+01  0.2724E+02
   8.460  0.3125E+01  0.2726E+02
   8.465  0.3131E+01  0.2727E+02
   8.470  0.3137E+01  0.2729E+02
   8.475  0.3144E+01  0.2730E+02
   8.480  0.3150E+01  0.2732E+02
   8.485  0.3157E+01  0.2733E+02
   8.490  0.3164E+01  0.2735E+02
   8.495  0.3170E+01  0.2737E+02
   8.500  0.3177E+01  0.2738E+02
   8.505  0.3184E+01  0.2740E+02
   8.510  0.3192E+01  0.2741E+02
   8.515  0.3199E+01  0.2743E+02
   8.520  0.3206E+01  0.2745E+02
   8.525  0.3213E+01  0.2746E+02
   8.530  0.3221E+01  0.2748E+02
   8.535  0.3228E+01  0.2749E+02
   8.540  0.3236E+01  0.2751E+02
   8.545  0.3243E+01  0.2753E+02
   8.550  0.3251E+01  0.2754E+02
   8.555  0.3258E+01  0.2756E+02
   8.560  0.3266E+01  0.2758E+02
   8.565  0.3273E+01  0.2759E+02
   8.570  0.3280E+01  0.2761E+02
   8.575  0.3288E+01  0.2762E+02
   8.580  0.3295E+01  0.2764E+02
   8.585  0.3302E+01  0.2766E+02
   8.590  0.3309E+01  0.2767E+02
   8.595  0.3316E+01  0.2769E+02
   8.600  0.3323E+01  0.2771E+02
   8.605  0.3330E+01  0.2772E+02
   8.610  0.3337E+01  0.2774E+02
   8.615  0.3343E+01  0.2776E+02
   8.620  0.3350E+01  0.2777E+02
   8.625  0.3356E+01  0.2779E+02
   8.630  0.3363E+01  0.2781E+02
   8.635  0.3369E+01  0.2782E+02
   8.640  0.3375E+01  0.2784E+02
   8.645  0.3380E+01  0.2786E+02
   8.650  0.3386E+01  0.2788E+02
   8.655  0.3391E+01  0.2789E+02
   8.660  0.3397E+01  0.2791E+02
   8.665  0.3402E+01  0.2793E+02
   8.670  0.3407E+01  0.2794E+02
   8.675  0.3411E+01  0.2796E+02
   8.680  0.3416E+01  0.2798E+02
   8.685  0.3420E+01  0.2799E+02
   8.690  0.3425E+01  0.2801E+02
   8.695  0.3429E+01  0.2803E+02
   8.700  0.3433E+01  0.2805E+02
   8.705  0.3436E+01  0.2806E+02
   8.710  0.3440E+01  0.2808E+02
   8.715  0.3443E+01  0.2810E+02
   8.720  0.3446E+01  0.2812E+02
   8.725  0.3449E+01  0.2813E+02
   8.730  0.3452E+01  0.2815E+02
   8.735  0.3455E+01  0.2817E+02
   8.740  0.3457E+01  0.2818E+02
   8.745  0.3460E+01  0.2820E+02
   8.750  0.3462E+01  0.2822E+02
   8.755  0.3464E+01  0.2824E+02
   8.760  0.3466E+01  0.2825E+02
   8.765  0.3468E+01  0.2827E+02
   8.770  0.3469E+01  0.2829E+02
   8.775  0.3471E+01  0.2831E+02
   8.780  0.3472E+01  0.2832E+02
   8.785  0.3473E+01  0.2834E+02
   8.790  0.3475E+01  0.2836E+02
   8.795  0.3476E+01  0.2837E+02
   8.800  0.3476E+01  0.2839E+02
   8.805  0.3477E+01  0.2841E+02
   8.810  0.3478E+01  0.2843E+02
   8.815  0.3479E+01  0.2844E+02
   8.820  0.3479E+01  0.2846E+02
   8.825  0.3479E+01  0.2848E+02
   8.830  0.3480E+01  0.2850E+02
   8.835  0.3480E+01  0.2851E+02
   8.840  0.3480E+01  0.2853E+02
   8.845  0.3480E+01  0.2855E+02
   8.850  0.3480E+01  0.2857E+02
   8.855  0.3480E+01  0.2858E+02
   8.860  0.3480E+01  0.2860E+02
   8.865  0.3480E+01  0.2862E+02
   8.870  0.3480E+01  0.2864E+02
   8.875  0.3479E+01  0.2865E+02
   8.880  0.3479E+01  0.2867E+02
   8.885  0.3478E+01  0.2869E+02
   8.890  0.3478E+01  0.2871E+02
   8.895  0.3477E+01  0.2872E+02
   8.900  0.3477E+01  0.2874E+02
   8.905  0.3476E+01  0.2876E+02
   8.910  0.3475E+01  0.2877E+02
   8.915  0.3475E+01  0.2879E+02
   8.920  0.3474E+01  0.2881E+02
   8.925  0.3473E+01  0.2883E+02
   8.930  0.3472E+01  0.2884E+02
   8.935  0.3471E+01  0.2886E+02
   8.940  0.3470E+01  0.2888E+02
   8.945  0.3469E+01  0.2890E+02
   8.950  0.3468E+01  0.2891E+02
   8.955  0.3466E+01  0.2893E+02
   8.960  0.3465E+01  0.2895E+02
   8.965  0.3464E+01  0.2897E+02
   8.970  0.3462E+01  0.2898E+02
   8.975  0.3461E+01  0.2900E+02
   8.980  0.3459E+01  0.2902E+02
   8.985  0.3457E+01  0.2903E+02
   8.990  0.3456E+01  0.2905E+02
   8.995  0.3454E+01  0.2907E+02
   9.000  0.3452E+01  0.2909E+02
   9.005  0.3450E+01  0.2910E+02
   9.010  0.3448E+01  0.2912E+02
   9.015  0.3446E+01  0.2914E+02
   9.020  0.3443E+01  0.2916E+02
   9.025  0.3441E+01  0.2917E+02
   9.030  0.3439E+01  0.2919E+02
   9.035  0.3436E+01  0.2921E+02
   9.040  0.3433E+01  0.2922E+02
   9.045  0.3431E+01  0.2924E+02
   9.050  0.3428E+01  0.2926E+02
   9.055  0.3425E+01  0.2928E+02
   9.060  0.3422E+01  0.2929E+02
   9.065  0.3419E+01  0.2931E+02
   9.070  0.3416E+01  0.2933E+02
   9.075  0.3413E+01  0.2934E+02
   9.080  0.3409E+01  0.2936E+02
   9.085  0.3406E+01  0.2938E+02
   9.090  0.3402E+01  0.2940E+02
   9.095  0.3399E+01  0.2941E+02
   9.100  0.3395E+01  0.2943E+02
   9.105  0.3392E+01  0.2945E+02
   9.110  0.3388E+01  0.2946E+02
   9.115  0.3384E+01  0.2948E+02
   9.120  0.3380E+01  0.2950E+02
   9.125  0.3376E+01  0.2951E+02
   9.130  0.3372E+01  0.2953E+02
   9.135  0.3368E+01  0.2955E+02
   9.140  0.3364E+01  0.2956E+02
   9.145  0.3360E+01  0.2958E+02
   9.150  0.3356E+01  0.2960E+02
   9.155  0.3352E+01  0.2961E+02
   9.160  0.3348E+01  0.2963E+02
   9.165  0.3343E+01  0.2965E+02
   9.170  0.3339E+01  0.2966E+02
   9.175  0.3335E+01  0.2968E+02
   9.180  0.3331E+01  0.2970E+02
   9.185  0.3327E+01  0.2971E+02
   9.190  0.3322E+01  0.2973E+02
   9.195  0.3318E+01  0.2975E+02
   9.200  0.3314E+01  0.2976E+02
   9.205  0.3310E+01  0.2978E+02
   9.210  0.3306E+01  0.2980E+02
   9.215  0.3302E+01  0.2981E+02
   9.220  0.3298E+01  0.2983E+02
   9.225  0.3294E+01  0.2985E+02
   9.230  0.3290E+01  0.2986E+02
   9.235  0.3287E+01  0.2988E+02
   9.240  0.3283E+01  0.2990E+02
   9.245  0.3279E+01  0.2991E+02
   9.250  0.3276E+01  0.2993E+02
   9.255  0.3272E+01  0.2995E+02
   9.260  0.3269E+01  0.2996E+02
   9.265  0.3266E+01  0.2998E+02
   9.270  0.3263E+01  0.2999E+02
   9.275  0.3260E+01  0.3001E+02
   9.280  0.3257E+01  0.3003E+02
   9.285  0.3254E+01  0.3004E+02
   9.290  0.3252E+01  0.3006E+02
   9.295  0.3249E+01  0.3008E+02
   9.300  0.3247E+01  0.3009E+02
   9.305  0.3245E+01  0.3011E+02
   9.310  0.3243E+01  0.3012E+02
   9.315  0.3241E+01  0.3014E+02
   9.320  0.3239E+01  0.3016E+02
   9.325  0.3237E+01  0.3017E+02
   9.330  0.3236E+01  0.3019E+02
   9.335  0.3234E+01  0.3021E+02
   9.340  0.3233E+01  0.3022E+02
   9.345  0.3232E+01  0.3024E+02
   9.350  0.3232E+01  0.3025E+02
   9.355  0.3231E+01  0.3027E+02
   9.360  0.3230E+01  0.3029E+02
   9.365  0.3230E+01  0.3030E+02
   9.370  0.3230E+01  0.3032E+02
   9.375  0.3230E+01  0.3033E+02
   9.380  0.3230E+01  0.3035E+02
   9.385  0.3231E+01  0.3037E+02
   9.390  0.3231E+01  0.3038E+02
   9.395  0.3232E+01  0.3040E+02
   9.400  0.3233E+01  0.3042E+02
   9.405  0.3234E+01  0.3043E+02
   9.410  0.3236E+01  0.3045E+02
   9.415  0.3237E+01  0.3046E+02
   9.420  0.3239E+01  0.3048E+02
   9.425  0.3241E+01  0.3050E+02
   9.430  0.3244E+01  0.3051E+02
   9.435  0.3246E+01  0.3053E+02
   9.440  0.3249E+01  0.3055E+02
   9.445  0.3252E+01  0.3056E+02
   9.450  0.3255E+01  0.3058E+02
   9.455  0.3258E+01  0.3059E+02
   9.460  0.3262E+01  0.3061E+02
   9.465  0.3266E+01  0.3063E+02
   9.470  0.3270E+01  0.3064E+02
   9.475  0.3275E+01  0.3066E+02
   9.480  0.3280E+01  0.3068E+02
   9.485  0.3285E+01  0.3069E+02
   9.490  0.3290E+01  0.3071E+02
   9.495  0.3296E+01  0.3073E+02
   9.500  0.3302E+01  0.3074E+02
   9.505  0.3308E+01  0.3076E+02
   9.510  0.3315E+01  0.3077E+02
   9.515  0.3322E+01  0.3079E+02
   9.520  0.3329E+01  0.3081E+02
   9.525  0.3337E+01  0.3082E+02
   9.530  0.3345E+01  0.3084E+02
   9.535  0.3353E+01  0.3086E+02
   9.540  0.3362E+01  0.3087E+02
   9.545  0.3371E+01  0.3089E+02
   9.550  0.3381E+01  0.3091E+02
   9.555  0.3391E+01  0.3093E+02
   9.560  0.3402E+01  0.3094E+02
   9.565  0.3413E+01  0.3096E+02
   9.570  0.3424E+01  0.3098E+02
   9.575  0.3436E+01  0.3099E+02
   9.580  0.3448E+01  0.3101E+02
   9.585  0.3461E+01  0.3103E+02
   9.590  0.3475E+01  0.3105E+02
   9.595  0.3488E+01  0.3106E+02
   9.600  0.3503E+01  0.3108E+02
   9.605  0.3518E+01  0.3110E+02
   9.610  0.3533E+01  0.3112E+02
   9.615  0.3549E+01  0.3113E+02
   9.620  0.3566E+01  0.3115E+02
   9.625  0.3583E+01  0.3117E+02
   9.630  0.3601E+01  0.3119E+02
   9.635  0.3619E+01  0.3121E+02
   9.640  0.3638E+01  0.3122E+02
   9.645  0.3658E+01  0.3124E+02
   9.650  0.3678E+01  0.3126E+02
   9.655  0.3699E+01  0.3128E+02
   9.660  0.3720E+01  0.3130E+02
   9.665  0.3742E+01  0.3132E+02
   9.670  0.3765E+01  0.3134E+02
   9.675  0.3788E+01  0.3135E+02
   9.680  0.3812E+01  0.3137E+02
   9.685  0.3836E+01  0.3139E+02
   9.690  0.3861E+01  0.3141E+02
   9.695  0.3887E+01  0.3143E+02
   9.700  0.3913E+01  0.3145E+02
   9.705  0.3940E+01  0.3147E+02
   9.710  0.3967E+01  0.3149E+02
   9.715  0.3995E+01  0.3151E+02
   9.720  0.4024E+01  0.3153E+02
   9.725  0.4053E+01  0.3155E+02
   9.730  0.4083E+01  0.3157E+02
   9.735  0.4113E+01  0.3159E+02
   9.740  0.4144E+01  0.3161E+02
   9.745  0.4175E+01  0.3163E+02
   9.750  0.4207E+01  0.3165E+02
   9.755  0.4239E+01  0.3168E+02
   9.760  0.4272E+01  0.3170E+02
   9.765  0.4305E+01  0.3172E+02
   9.770  0.4339E+01  0.3174E+02
   9.775  0.4373E+01  0.3176E+02
   9.780  0.4407E+01  0.3178E+02
   9.785  0.4442E+01  0.3181E+02
   9.790  0.4477E+01  0.3183E+02
   9.795  0.4512E+01  0.3185E+02
   9.800  0.4548E+01  0.3187E+02
   9.805  0.4584E+01  0.3190E+02
   9.810  0.4620E+01  0.3192E+02
   9.815  0.4656E+01  0.3194E+02
   9.820  0.4692E+01  0.3197E+02
   9.825  0.4729E+01  0.3199E+02
   9.830  0.4765E+01  0.3201E+02
   9.835  0.4801E+01  0.3204E+02
   9.840  0.4838E+01  0.3206E+02
   9.845  0.4874E+01  0.3209E+02
   9.850  0.4911E+01  0.3211E+02
   9.855  0.4947E+01  0.3214E+02
   9.860  0.4983E+01  0.3216E+02
   9.865  0.5018E+01  0.3219E+02
   9.870  0.5054E+01  0.3221E+02
   9.875  0.5089E+01  0.3224E+02
   9.880  0.5124E+01  0.3226E+02
   9.885  0.5158E+01  0.3229E+02
   9.890  0.5192E+01  0.3231E+02
   9.895  0.5226E+01  0.3234E+02
   9.900  0.5259E+01  0.3237E+02
   9.905  0.5291E+01  0.3239E+02
   9.910  0.5323E+01  0.3242E+02
   9.915  0.5354E+01  0.3245E+02
   9.920  0.5385E+01  0.3247E+02
   9.925  0.5415E+01  0.3250E+02
   9.930  0.5444E+01  0.3253E+02
   9.935  0.5472E+01  0.3255E+02
   9.940  0.5500E+01  0.3258E+02
   9.945  0.5526E+01  0.3261E+02
   9.950  0.5552E+01  0.3264E+02
   9.955  0.5577E+01  0.3267E+02
   9.960  0.5600E+01  0.3269E+02
   9.965  0.5623E+01  0.3272E+02
   9.970  0.5645E+01  0.3275E+02
   9.975  0.5665E+01  0.3278E+02
   9.980  0.5685E+01  0.3281E+02
   9.985  0.5703E+01  0.3284E+02
   9.990  0.5720E+01  0.3286E+02
   9.995  0.5736E+01  0.3289E+02
  10.000  0.5751E+01  0.3292E+02
