#  E (eV)   dos(E)     Int dos(E) EFermi =    1.807 eV
 -10.000  0.1650E-02  0.8249E-05
  -9.995  0.1518E-02  0.1584E-04
  -9.990  0.1396E-02  0.2282E-04
  -9.985  0.1283E-02  0.2924E-04
  -9.980  0.1179E-02  0.3513E-04
  -9.975  0.1082E-02  0.4054E-04
  -9.970  0.9928E-03  0.4551E-04
  -9.965  0.9102E-03  0.5006E-04
  -9.960  0.8340E-03  0.5423E-04
  -9.955  0.7637E-03  0.5805E-04
  -9.950  0.6989E-03  0.6154E-04
  -9.945  0.6392E-03  0.6474E-04
  -9.940  0.5842E-03  0.6766E-04
  -9.935  0.5336E-03  0.7033E-04
  -9.930  0.4871E-03  0.7276E-04
  -9.925  0.4444E-03  0.7498E-04
  -9.920  0.4051E-03  0.7701E-04
  -9.915  0.3691E-03  0.7886E-04
  -9.910  0.3361E-03  0.8054E-04
  -9.905  0.3059E-03  0.8207E-04
  -9.900  0.2782E-03  0.8346E-04
  -9.895  0.2528E-03  0.8472E-04
  -9.890  0.2296E-03  0.8587E-04
  -9.885  0.2084E-03  0.8691E-04
  -9.880  0.1891E-03  0.8786E-04
  -9.875  0.1714E-03  0.8871E-04
  -9.870  0.1553E-03  0.8949E-04
  -9.865  0.1406E-03  0.9019E-04
  -9.860  0.1272E-03  0.9083E-04
  -9.855  0.1150E-03  0.9140E-04
  -9.850  0.1040E-03  0.9192E-04
  -9.845  0.9388E-04  0.9239E-04
  -9.840  0.8473E-04  0.9282E-04
  -9.835  0.7643E-04  0.9320E-04
  -9.830  0.6889E-04  0.9354E-04
  -9.825  0.6206E-04  0.9385E-04
  -9.820  0.5587E-04  0.9413E-04
  -9.815  0.5026E-04  0.9438E-04
  -9.810  0.4519E-04  0.9461E-04
  -9.805  0.4061E-04  0.9481E-04
  -9.800  0.3646E-04  0.9500E-04
  -9.795  0.3272E-04  0.9516E-04
  -9.790  0.2934E-04  0.9531E-04
  -9.785  0.2630E-04  0.9544E-04
  -9.780  0.2355E-04  0.9556E-04
  -9.775  0.2108E-04  0.9566E-04
  -9.770  0.1886E-04  0.9576E-04
  -9.765  0.1686E-04  0.9584E-04
  -9.760  0.1506E-04  0.9591E-04
  -9.755  0.1345E-04  0.9598E-04
  -9.750  0.1200E-04  0.9604E-04
  -9.745  0.1070E-04  0.9610E-04
  -9.740  0.9532E-05  0.9614E-04
  -9.735  0.8489E-05  0.9619E-04
  -9.730  0.7554E-05  0.9622E-04
  -9.725  0.6718E-05  0.9626E-04
  -9.720  0.5971E-05  0.9629E-04
  -9.715  0.5304E-05  0.9631E-04
  -9.710  0.4708E-05  0.9634E-04
  -9.705  0.4176E-05  0.9636E-04
  -9.700  0.3702E-05  0.9638E-04
  -9.695  0.3280E-05  0.9639E-04
  -9.690  0.2904E-05  0.9641E-04
  -9.685  0.2569E-05  0.9642E-04
  -9.680  0.2272E-05  0.9643E-04
  -9.675  0.2007E-05  0.9644E-04
  -9.670  0.1773E-05  0.9645E-04
  -9.665  0.1564E-05  0.9646E-04
  -9.660  0.1380E-05  0.9646E-04
  -9.655  0.1216E-05  0.9647E-04
  -9.650  0.1071E-05  0.9648E-04
  -9.645  0.9427E-06  0.9648E-04
  -9.640  0.8292E-06  0.9649E-04
  -9.635  0.7289E-06  0.9649E-04
  -9.630  0.6404E-06  0.9649E-04
  -9.625  0.5622E-06  0.9649E-04
  -9.620  0.4932E-06  0.9650E-04
  -9.615  0.4325E-06  0.9650E-04
  -9.610  0.3789E-06  0.9650E-04
  -9.605  0.3318E-06  0.9650E-04
  -9.600  0.2904E-06  0.9650E-04
  -9.595  0.2539E-06  0.9651E-04
  -9.590  0.2219E-06  0.9651E-04
  -9.585  0.1938E-06  0.9651E-04
  -9.580  0.1692E-06  0.9651E-04
  -9.575  0.1476E-06  0.9651E-04
  -9.570  0.1286E-06  0.9651E-04
  -9.565  0.1120E-06  0.9651E-04
  -9.560  0.9753E-07  0.9651E-04
  -9.555  0.8485E-07  0.9651E-04
  -9.550  0.7377E-07  0.9651E-04
  -9.545  0.6409E-07  0.9651E-04
  -9.540  0.5565E-07  0.9651E-04
  -9.535  0.4828E-07  0.9651E-04
  -9.530  0.4187E-07  0.9651E-04
  -9.525  0.3628E-07  0.9651E-04
  -9.520  0.3142E-07  0.9651E-04
  -9.515  0.2719E-07  0.9651E-04
  -9.510  0.2352E-07  0.9651E-04
  -9.505  0.2033E-07  0.9651E-04
  -9.500  0.1756E-07  0.9651E-04
  -9.495  0.1515E-07  0.9651E-04
  -9.490  0.1307E-07  0.9651E-04
  -9.485  0.1127E-07  0.9651E-04
  -9.480  0.9707E-08  0.9651E-04
  -9.475  0.8357E-08  0.9651E-04
  -9.470  0.7190E-08  0.9651E-04
  -9.465  0.6182E-08  0.9651E-04
  -9.460  0.5311E-08  0.9651E-04
  -9.455  0.4561E-08  0.9651E-04
  -9.450  0.3913E-08  0.9651E-04
  -9.445  0.3356E-08  0.9651E-04
  -9.440  0.2876E-08  0.9651E-04
  -9.435  0.2463E-08  0.9651E-04
  -9.430  0.2108E-08  0.9651E-04
  -9.425  0.1803E-08  0.9651E-04
  -9.420  0.1541E-08  0.9651E-04
  -9.415  0.1316E-08  0.9651E-04
  -9.410  0.1123E-08  0.9651E-04
  -9.405  0.9583E-09  0.9651E-04
  -9.400  0.8169E-09  0.9651E-04
  -9.395  0.6959E-09  0.9651E-04
  -9.390  0.5925E-09  0.9651E-04
  -9.385  0.5041E-09  0.9651E-04
  -9.380  0.4286E-09  0.9651E-04
  -9.375  0.3642E-09  0.9651E-04
  -9.370  0.3092E-09  0.9651E-04
  -9.365  0.2624E-09  0.9651E-04
  -9.360  0.2225E-09  0.9651E-04
  -9.355  0.1885E-09  0.9651E-04
  -9.350  0.1597E-09  0.9651E-04
  -9.345  0.1351E-09  0.9651E-04
  -9.340  0.1143E-09  0.9651E-04
  -9.335  0.9660E-10  0.9651E-04
  -9.330  0.8159E-10  0.9651E-04
  -9.325  0.6887E-10  0.9651E-04
  -9.320  0.5810E-10  0.9651E-04
  -9.315  0.4897E-10  0.9651E-04
  -9.310  0.4126E-10  0.9651E-04
  -9.305  0.3473E-10  0.9651E-04
  -9.300  0.2922E-10  0.9651E-04
  -9.295  0.2457E-10  0.9651E-04
  -9.290  0.2064E-10  0.9651E-04
  -9.285  0.1733E-10  0.9651E-04
  -9.280  0.1454E-10  0.9651E-04
  -9.275  0.1219E-10  0.9651E-04
  -9.270  0.1022E-10  0.9651E-04
  -9.265  0.8557E-11  0.9651E-04
  -9.260  0.7161E-11  0.9651E-04
  -9.255  0.5989E-11  0.9651E-04
  -9.250  0.5006E-11  0.9651E-04
  -9.245  0.4181E-11  0.9651E-04
  -9.240  0.3490E-11  0.9651E-04
  -9.235  0.2911E-11  0.9651E-04
  -9.230  0.2426E-11  0.9651E-04
  -9.225  0.2021E-11  0.9651E-04
  -9.220  0.1682E-11  0.9651E-04
  -9.215  0.1400E-11  0.9651E-04
  -9.210  0.1164E-11  0.9651E-04
  -9.205  0.9667E-12  0.9651E-04
  -9.200  0.8026E-12  0.9651E-04
  -9.195  0.6659E-12  0.9651E-04
  -9.190  0.5522E-12  0.9651E-04
  -9.185  0.4575E-12  0.9651E-04
  -9.180  0.3789E-12  0.9651E-04
  -9.175  0.3135E-12  0.9651E-04
  -9.170  0.2593E-12  0.9651E-04
  -9.165  0.2143E-12  0.9651E-04
  -9.160  0.1770E-12  0.9651E-04
  -9.155  0.1460E-12  0.9651E-04
  -9.150  0.1205E-12  0.9651E-04
  -9.145  0.9928E-13  0.9651E-04
  -9.140  0.8177E-13  0.9651E-04
  -9.135  0.6731E-13  0.9651E-04
  -9.130  0.5537E-13  0.9651E-04
  -9.125  0.4552E-13  0.9651E-04
  -9.120  0.3739E-13  0.9651E-04
  -9.115  0.3070E-13  0.9651E-04
  -9.110  0.2518E-13  0.9651E-04
  -9.105  0.2065E-13  0.9651E-04
  -9.100  0.1692E-13  0.9651E-04
  -9.095  0.1385E-13  0.9651E-04
  -9.090  0.1133E-13  0.9651E-04
  -9.085  0.9267E-14  0.9651E-04
  -9.080  0.7572E-14  0.9651E-04
  -9.075  0.6184E-14  0.9651E-04
  -9.070  0.5046E-14  0.9651E-04
  -9.065  0.4115E-14  0.9651E-04
  -9.060  0.3354E-14  0.9651E-04
  -9.055  0.2732E-14  0.9651E-04
  -9.050  0.2223E-14  0.9651E-04
  -9.045  0.1808E-14  0.9651E-04
  -9.040  0.1470E-14  0.9651E-04
  -9.035  0.1194E-14  0.9651E-04
  -9.030  0.9691E-15  0.9651E-04
  -9.025  0.7861E-15  0.9651E-04
  -9.020  0.6373E-15  0.9651E-04
  -9.015  0.5163E-15  0.9651E-04
  -9.010  0.4180E-15  0.9651E-04
  -9.005  0.3381E-15  0.9651E-04
  -9.000  0.2734E-15  0.9651E-04
  -8.995  0.2209E-15  0.9651E-04
  -8.990  0.1784E-15  0.9651E-04
  -8.985  0.1439E-15  0.9651E-04
  -8.980  0.1160E-15  0.9651E-04
  -8.975  0.9351E-16  0.9651E-04
  -8.970  0.7530E-16  0.9651E-04
  -8.965  0.6060E-16  0.9651E-04
  -8.960  0.4873E-16  0.9651E-04
  -8.955  0.3917E-16  0.9651E-04
  -8.950  0.3146E-16  0.9651E-04
  -8.945  0.2525E-16  0.9651E-04
  -8.940  0.2025E-16  0.9651E-04
  -8.935  0.1623E-16  0.9651E-04
  -8.930  0.1300E-16  0.9651E-04
  -8.925  0.1041E-16  0.9651E-04
  -8.920  0.8325E-17  0.9651E-04
  -8.915  0.6655E-17  0.9651E-04
  -8.910  0.5317E-17  0.9651E-04
  -8.905  0.4244E-17  0.9651E-04
  -8.900  0.3386E-17  0.9651E-04
  -8.895  0.2700E-17  0.9651E-04
  -8.890  0.2151E-17  0.9651E-04
  -8.885  0.1713E-17  0.9651E-04
  -8.880  0.1363E-17  0.9651E-04
  -8.875  0.1084E-17  0.9651E-04
  -8.870  0.8611E-18  0.9651E-04
  -8.865  0.6838E-18  0.9651E-04
  -8.860  0.5426E-18  0.9651E-04
  -8.855  0.4303E-18  0.9651E-04
  -8.850  0.3410E-18  0.9651E-04
  -8.845  0.2701E-18  0.9651E-04
  -8.840  0.2138E-18  0.9651E-04
  -8.835  0.1691E-18  0.9651E-04
  -8.830  0.1336E-18  0.9651E-04
  -8.825  0.1056E-18  0.9651E-04
  -8.820  0.8332E-19  0.9651E-04
  -8.815  0.6572E-19  0.9651E-04
  -8.810  0.5181E-19  0.9651E-04
  -8.805  0.4081E-19  0.9651E-04
  -8.800  0.3213E-19  0.9651E-04
  -8.795  0.2528E-19  0.9651E-04
  -8.790  0.1987E-19  0.9651E-04
  -8.785  0.1561E-19  0.9651E-04
  -8.780  0.1226E-19  0.9651E-04
  -8.775  0.9618E-20  0.9651E-04
  -8.770  0.7541E-20  0.9651E-04
  -8.765  0.5909E-20  0.9651E-04
  -8.760  0.4627E-20  0.9651E-04
  -8.755  0.3621E-20  0.9651E-04
  -8.750  0.2832E-20  0.9651E-04
  -8.745  0.2213E-20  0.9651E-04
  -8.740  0.1728E-20  0.9651E-04
  -8.735  0.1349E-20  0.9651E-04
  -8.730  0.1052E-20  0.9651E-04
  -8.725  0.8198E-21  0.9651E-04
  -8.720  0.6385E-21  0.9651E-04
  -8.715  0.4970E-21  0.9651E-04
  -8.710  0.3866E-21  0.9651E-04
  -8.705  0.3005E-21  0.9651E-04
  -8.700  0.2334E-21  0.9651E-04
  -8.695  0.1812E-21  0.9651E-04
  -8.690  0.1406E-21  0.9651E-04
  -8.685  0.1090E-21  0.9651E-04
  -8.680  0.8443E-22  0.9651E-04
  -8.675  0.6537E-22  0.9651E-04
  -8.670  0.5057E-22  0.9651E-04
  -8.665  0.3910E-22  0.9651E-04
  -8.660  0.3021E-22  0.9651E-04
  -8.655  0.2333E-22  0.9651E-04
  -8.650  0.1800E-22  0.9651E-04
  -8.645  0.1388E-22  0.9651E-04
  -8.640  0.1070E-22  0.9651E-04
  -8.635  0.8237E-23  0.9651E-04
  -8.630  0.6339E-23  0.9651E-04
  -8.625  0.4875E-23  0.9651E-04
  -8.620  0.3746E-23  0.9651E-04
  -8.615  0.2877E-23  0.9651E-04
  -8.610  0.2208E-23  0.9651E-04
  -8.605  0.1694E-23  0.9651E-04
  -8.600  0.1298E-23  0.9651E-04
  -8.595  0.9945E-24  0.9651E-04
  -8.590  0.7612E-24  0.9651E-04
  -8.585  0.5823E-24  0.9651E-04
  -8.580  0.4451E-24  0.9651E-04
  -8.575  0.3400E-24  0.9651E-04
  -8.570  0.2596E-24  0.9651E-04
  -8.565  0.1980E-24  0.9651E-04
  -8.560  0.1510E-24  0.9651E-04
  -8.555  0.1150E-24  0.9651E-04
  -8.550  0.8758E-25  0.9651E-04
  -8.545  0.6664E-25  0.9651E-04
  -8.540  0.5067E-25  0.9651E-04
  -8.535  0.3850E-25  0.9651E-04
  -8.530  0.2924E-25  0.9651E-04
  -8.525  0.2218E-25  0.9651E-04
  -8.520  0.1682E-25  0.9651E-04
  -8.515  0.1275E-25  0.9651E-04
  -8.510  0.9655E-26  0.9651E-04
  -8.505  0.7307E-26  0.9651E-04
  -8.500  0.5526E-26  0.9651E-04
  -8.495  0.4176E-26  0.9651E-04
  -8.490  0.3154E-26  0.9651E-04
  -8.485  0.2381E-26  0.9651E-04
  -8.480  0.1796E-26  0.9651E-04
  -8.475  0.1354E-26  0.9651E-04
  -8.470  0.1020E-26  0.9651E-04
  -8.465  0.7675E-27  0.9651E-04
  -8.460  0.5774E-27  0.9651E-04
  -8.455  0.4341E-27  0.9651E-04
  -8.450  0.3261E-27  0.9651E-04
  -8.445  0.2448E-27  0.9651E-04
  -8.440  0.1837E-27  0.9651E-04
  -8.435  0.1377E-27  0.9651E-04
  -8.430  0.1032E-27  0.9651E-04
  -8.425  0.7725E-28  0.9651E-04
  -8.420  0.5780E-28  0.9651E-04
  -8.415  0.4322E-28  0.9651E-04
  -8.410  0.3229E-28  0.9651E-04
  -8.405  0.2412E-28  0.9651E-04
  -8.400  0.1800E-28  0.9651E-04
  -8.395  0.1342E-28  0.9651E-04
  -8.390  0.1000E-28  0.9651E-04
  -8.385  0.7448E-29  0.9651E-04
  -8.380  0.5543E-29  0.9651E-04
  -8.375  0.4123E-29  0.9651E-04
  -8.370  0.3064E-29  0.9651E-04
  -8.365  0.2276E-29  0.9651E-04
  -8.360  0.1689E-29  0.9651E-04
  -8.355  0.1253E-29  0.9651E-04
  -8.350  0.9288E-30  0.9651E-04
  -8.345  0.6880E-30  0.9651E-04
  -8.340  0.5093E-30  0.9651E-04
  -8.335  0.3768E-30  0.9651E-04
  -8.330  0.2785E-30  0.9651E-04
  -8.325  0.2058E-30  0.9651E-04
  -8.320  0.1519E-30  0.9651E-04
  -8.315  0.1121E-30  0.9651E-04
  -8.310  0.8263E-31  0.9651E-04
  -8.305  0.6088E-31  0.9651E-04
  -8.300  0.4483E-31  0.9651E-04
  -8.295  0.3298E-31  0.9651E-04
  -8.290  0.2425E-31  0.9651E-04
  -8.285  0.1782E-31  0.9651E-04
  -8.280  0.1309E-31  0.9651E-04
  -8.275  0.9604E-32  0.9651E-04
  -8.270  0.7043E-32  0.9651E-04
  -8.265  0.5161E-32  0.9651E-04
  -8.260  0.3780E-32  0.9651E-04
  -8.255  0.2767E-32  0.9651E-04
  -8.250  0.2023E-32  0.9651E-04
  -8.245  0.1479E-32  0.9651E-04
  -8.240  0.1080E-32  0.9651E-04
  -8.235  0.7884E-33  0.9651E-04
  -8.230  0.5751E-33  0.9651E-04
  -8.225  0.4192E-33  0.9651E-04
  -8.220  0.3054E-33  0.9651E-04
  -8.215  0.2223E-33  0.9651E-04
  -8.210  0.1617E-33  0.9651E-04
  -8.205  0.1176E-33  0.9651E-04
  -8.200  0.8540E-34  0.9651E-04
  -8.195  0.6200E-34  0.9651E-04
  -8.190  0.4498E-34  0.9651E-04
  -8.185  0.3262E-34  0.9651E-04
  -8.180  0.2363E-34  0.9651E-04
  -8.175  0.1711E-34  0.9651E-04
  -8.170  0.1238E-34  0.9651E-04
  -8.165  0.8952E-35  0.9651E-04
  -8.160  0.6469E-35  0.9651E-04
  -8.155  0.4671E-35  0.9651E-04
  -8.150  0.3371E-35  0.9651E-04
  -8.145  0.2431E-35  0.9651E-04
  -8.140  0.1752E-35  0.9651E-04
  -8.135  0.1262E-35  0.9651E-04
  -8.130  0.9080E-36  0.9651E-04
  -8.125  0.6531E-36  0.9651E-04
  -8.120  0.4694E-36  0.9651E-04
  -8.115  0.3371E-36  0.9651E-04
  -8.110  0.2420E-36  0.9651E-04
  -8.105  0.1736E-36  0.9651E-04
  -8.100  0.1244E-36  0.9651E-04
  -8.095  0.8913E-37  0.9651E-04
  -8.090  0.6380E-37  0.9651E-04
  -8.085  0.4564E-37  0.9651E-04
  -8.080  0.3263E-37  0.9651E-04
  -8.075  0.2331E-37  0.9651E-04
  -8.070  0.1664E-37  0.9651E-04
  -8.065  0.1187E-37  0.9651E-04
  -8.060  0.8465E-38  0.9651E-04
  -8.055  0.6031E-38  0.9651E-04
  -8.050  0.4294E-38  0.9651E-04
  -8.045  0.3055E-38  0.9651E-04
  -8.040  0.2173E-38  0.9651E-04
  -8.035  0.1544E-38  0.9651E-04
  -8.030  0.1096E-38  0.9651E-04
  -8.025  0.7779E-39  0.9651E-04
  -8.020  0.5517E-39  0.9651E-04
  -8.015  0.3910E-39  0.9651E-04
  -8.010  0.2769E-39  0.9651E-04
  -8.005  0.1960E-39  0.9651E-04
  -8.000  0.1386E-39  0.9651E-04
  -7.995  0.9795E-40  0.9651E-04
  -7.990  0.6918E-40  0.9651E-04
  -7.985  0.4883E-40  0.9651E-04
  -7.980  0.3444E-40  0.9651E-04
  -7.975  0.2428E-40  0.9651E-04
  -7.970  0.1710E-40  0.9651E-04
  -7.965  0.1204E-40  0.9651E-04
  -7.960  0.8468E-41  0.9651E-04
  -7.955  0.5953E-41  0.9651E-04
  -7.950  0.4182E-41  0.9651E-04
  -7.945  0.2936E-41  0.9651E-04
  -7.940  0.2060E-41  0.9651E-04
  -7.935  0.1444E-41  0.9651E-04
  -7.930  0.1012E-41  0.9651E-04
  -7.925  0.7084E-42  0.9651E-04
  -7.920  0.4957E-42  0.9651E-04
  -7.915  0.3466E-42  0.9651E-04
  -7.910  0.2422E-42  0.9651E-04
  -7.905  0.1691E-42  0.9651E-04
  -7.900  0.1180E-42  0.9651E-04
  -7.895  0.8229E-43  0.9651E-04
  -7.890  0.5735E-43  0.9651E-04
  -7.885  0.3994E-43  0.9651E-04
  -7.880  0.2779E-43  0.9651E-04
  -7.875  0.1933E-43  0.9651E-04
  -7.870  0.1343E-43  0.9651E-04
  -7.865  0.9331E-44  0.9651E-04
  -7.860  0.6476E-44  0.9651E-04
  -7.855  0.4492E-44  0.9651E-04
  -7.850  0.3114E-44  0.9651E-04
  -7.845  0.2157E-44  0.9651E-04
  -7.840  0.1494E-44  0.9651E-04
  -7.835  0.1034E-44  0.9651E-04
  -7.830  0.7156E-45  0.9651E-04
  -7.825  0.4957E-45  0.9651E-04
  -7.820  0.3442E-45  0.9651E-04
  -7.815  0.2403E-45  0.9651E-04
  -7.810  0.1698E-45  0.9651E-04
  -7.805  0.1231E-45  0.9651E-04
  -7.800  0.9358E-46  0.9651E-04
  -7.795  0.7726E-46  0.9651E-04
  -7.790  0.7185E-46  0.9651E-04
  -7.785  0.7660E-46  0.9651E-04
  -7.780  0.9215E-46  0.9651E-04
  -7.775  0.1207E-45  0.9651E-04
  -7.770  0.1660E-45  0.9651E-04
  -7.765  0.2346E-45  0.9651E-04
  -7.760  0.3356E-45  0.9651E-04
  -7.755  0.4830E-45  0.9651E-04
  -7.750  0.6969E-45  0.9651E-04
  -7.745  0.1006E-44  0.9651E-04
  -7.740  0.1453E-44  0.9651E-04
  -7.735  0.2098E-44  0.9651E-04
  -7.730  0.3026E-44  0.9651E-04
  -7.725  0.4364E-44  0.9651E-04
  -7.720  0.6289E-44  0.9651E-04
  -7.715  0.9056E-44  0.9651E-04
  -7.710  0.1303E-43  0.9651E-04
  -7.705  0.1874E-43  0.9651E-04
  -7.700  0.2694E-43  0.9651E-04
  -7.695  0.3869E-43  0.9651E-04
  -7.690  0.5553E-43  0.9651E-04
  -7.685  0.7965E-43  0.9651E-04
  -7.680  0.1142E-42  0.9651E-04
  -7.675  0.1635E-42  0.9651E-04
  -7.670  0.2341E-42  0.9651E-04
  -7.665  0.3349E-42  0.9651E-04
  -7.660  0.4787E-42  0.9651E-04
  -7.655  0.6838E-42  0.9651E-04
  -7.650  0.9762E-42  0.9651E-04
  -7.645  0.1393E-41  0.9651E-04
  -7.640  0.1986E-41  0.9651E-04
  -7.635  0.2829E-41  0.9651E-04
  -7.630  0.4028E-41  0.9651E-04
  -7.625  0.5731E-41  0.9651E-04
  -7.620  0.8149E-41  0.9651E-04
  -7.615  0.1158E-40  0.9651E-04
  -7.610  0.1644E-40  0.9651E-04
  -7.605  0.2333E-40  0.9651E-04
  -7.600  0.3308E-40  0.9651E-04
  -7.595  0.4688E-40  0.9651E-04
  -7.590  0.6639E-40  0.9651E-04
  -7.585  0.9396E-40  0.9651E-04
  -7.580  0.1329E-39  0.9651E-04
  -7.575  0.1878E-39  0.9651E-04
  -7.570  0.2652E-39  0.9651E-04
  -7.565  0.3744E-39  0.9651E-04
  -7.560  0.5280E-39  0.9651E-04
  -7.555  0.7443E-39  0.9651E-04
  -7.550  0.1048E-38  0.9651E-04
  -7.545  0.1476E-38  0.9651E-04
  -7.540  0.2076E-38  0.9651E-04
  -7.535  0.2918E-38  0.9651E-04
  -7.530  0.4100E-38  0.9651E-04
  -7.525  0.5755E-38  0.9651E-04
  -7.520  0.8074E-38  0.9651E-04
  -7.515  0.1132E-37  0.9651E-04
  -7.510  0.1586E-37  0.9651E-04
  -7.505  0.2221E-37  0.9651E-04
  -7.500  0.3107E-37  0.9651E-04
  -7.495  0.4344E-37  0.9651E-04
  -7.490  0.6070E-37  0.9651E-04
  -7.485  0.8476E-37  0.9651E-04
  -7.480  0.1183E-36  0.9651E-04
  -7.475  0.1649E-36  0.9651E-04
  -7.470  0.2298E-36  0.9651E-04
  -7.465  0.3201E-36  0.9651E-04
  -7.460  0.4454E-36  0.9651E-04
  -7.455  0.6195E-36  0.9651E-04
  -7.450  0.8610E-36  0.9651E-04
  -7.445  0.1196E-35  0.9651E-04
  -7.440  0.1660E-35  0.9651E-04
  -7.435  0.2302E-35  0.9651E-04
  -7.430  0.3191E-35  0.9651E-04
  -7.425  0.4420E-35  0.9651E-04
  -7.420  0.6118E-35  0.9651E-04
  -7.415  0.8463E-35  0.9651E-04
  -7.410  0.1170E-34  0.9651E-04
  -7.405  0.1616E-34  0.9651E-04
  -7.400  0.2231E-34  0.9651E-04
  -7.395  0.3078E-34  0.9651E-04
  -7.390  0.4244E-34  0.9651E-04
  -7.385  0.5847E-34  0.9651E-04
  -7.380  0.8051E-34  0.9651E-04
  -7.375  0.1108E-33  0.9651E-04
  -7.370  0.1523E-33  0.9651E-04
  -7.365  0.2093E-33  0.9651E-04
  -7.360  0.2874E-33  0.9651E-04
  -7.355  0.3944E-33  0.9651E-04
  -7.350  0.5408E-33  0.9651E-04
  -7.345  0.7411E-33  0.9651E-04
  -7.340  0.1015E-32  0.9651E-04
  -7.335  0.1389E-32  0.9651E-04
  -7.330  0.1900E-32  0.9651E-04
  -7.325  0.2596E-32  0.9651E-04
  -7.320  0.3546E-32  0.9651E-04
  -7.315  0.4840E-32  0.9651E-04
  -7.310  0.6601E-32  0.9651E-04
  -7.305  0.8998E-32  0.9651E-04
  -7.300  0.1226E-31  0.9651E-04
  -7.295  0.1668E-31  0.9651E-04
  -7.290  0.2270E-31  0.9651E-04
  -7.285  0.3085E-31  0.9651E-04
  -7.280  0.4192E-31  0.9651E-04
  -7.275  0.5690E-31  0.9651E-04
  -7.270  0.7720E-31  0.9651E-04
  -7.265  0.1047E-30  0.9651E-04
  -7.260  0.1418E-30  0.9651E-04
  -7.255  0.1920E-30  0.9651E-04
  -7.250  0.2598E-30  0.9651E-04
  -7.245  0.3513E-30  0.9651E-04
  -7.240  0.4747E-30  0.9651E-04
  -7.235  0.6410E-30  0.9651E-04
  -7.230  0.8650E-30  0.9651E-04
  -7.225  0.1166E-29  0.9651E-04
  -7.220  0.1572E-29  0.9651E-04
  -7.215  0.2117E-29  0.9651E-04
  -7.210  0.2849E-29  0.9651E-04
  -7.205  0.3832E-29  0.9651E-04
  -7.200  0.5150E-29  0.9651E-04
  -7.195  0.6917E-29  0.9651E-04
  -7.190  0.9285E-29  0.9651E-04
  -7.185  0.1245E-28  0.9651E-04
  -7.180  0.1669E-28  0.9651E-04
  -7.175  0.2236E-28  0.9651E-04
  -7.170  0.2993E-28  0.9651E-04
  -7.165  0.4004E-28  0.9651E-04
  -7.160  0.5353E-28  0.9651E-04
  -7.155  0.7152E-28  0.9651E-04
  -7.150  0.9548E-28  0.9651E-04
  -7.145  0.1274E-27  0.9651E-04
  -7.140  0.1698E-27  0.9651E-04
  -7.135  0.2263E-27  0.9651E-04
  -7.130  0.3013E-27  0.9651E-04
  -7.125  0.4009E-27  0.9651E-04
  -7.120  0.5331E-27  0.9651E-04
  -7.115  0.7084E-27  0.9651E-04
  -7.110  0.9407E-27  0.9651E-04
  -7.105  0.1248E-26  0.9651E-04
  -7.100  0.1656E-26  0.9651E-04
  -7.095  0.2194E-26  0.9651E-04
  -7.090  0.2906E-26  0.9651E-04
  -7.085  0.3846E-26  0.9651E-04
  -7.080  0.5087E-26  0.9651E-04
  -7.075  0.6723E-26  0.9651E-04
  -7.070  0.8880E-26  0.9651E-04
  -7.065  0.1172E-25  0.9651E-04
  -7.060  0.1546E-25  0.9651E-04
  -7.055  0.2038E-25  0.9651E-04
  -7.050  0.2685E-25  0.9651E-04
  -7.045  0.3534E-25  0.9651E-04
  -7.040  0.4650E-25  0.9651E-04
  -7.035  0.6113E-25  0.9651E-04
  -7.030  0.8031E-25  0.9651E-04
  -7.025  0.1054E-24  0.9651E-04
  -7.020  0.1383E-24  0.9651E-04
  -7.015  0.1814E-24  0.9651E-04
  -7.010  0.2377E-24  0.9651E-04
  -7.005  0.3112E-24  0.9651E-04
  -7.000  0.4072E-24  0.9651E-04
  -6.995  0.5325E-24  0.9651E-04
  -6.990  0.6959E-24  0.9651E-04
  -6.985  0.9088E-24  0.9651E-04
  -6.980  0.1186E-23  0.9651E-04
  -6.975  0.1547E-23  0.9651E-04
  -6.970  0.2016E-23  0.9651E-04
  -6.965  0.2625E-23  0.9651E-04
  -6.960  0.3417E-23  0.9651E-04
  -6.955  0.4445E-23  0.9651E-04
  -6.950  0.5777E-23  0.9651E-04
  -6.945  0.7504E-23  0.9651E-04
  -6.940  0.9741E-23  0.9651E-04
  -6.935  0.1264E-22  0.9651E-04
  -6.930  0.1638E-22  0.9651E-04
  -6.925  0.2122E-22  0.9651E-04
  -6.920  0.2747E-22  0.9651E-04
  -6.915  0.3554E-22  0.9651E-04
  -6.910  0.4595E-22  0.9651E-04
  -6.905  0.5937E-22  0.9651E-04
  -6.900  0.7666E-22  0.9651E-04
  -6.895  0.9892E-22  0.9651E-04
  -6.890  0.1275E-21  0.9651E-04
  -6.885  0.1644E-21  0.9651E-04
  -6.880  0.2116E-21  0.9651E-04
  -6.875  0.2723E-21  0.9651E-04
  -6.870  0.3502E-21  0.9651E-04
  -6.865  0.4501E-21  0.9651E-04
  -6.860  0.5781E-21  0.9651E-04
  -6.855  0.7419E-21  0.9651E-04
  -6.850  0.9515E-21  0.9651E-04
  -6.845  0.1220E-20  0.9651E-04
  -6.840  0.1562E-20  0.9651E-04
  -6.835  0.1999E-20  0.9651E-04
  -6.830  0.2558E-20  0.9651E-04
  -6.825  0.3269E-20  0.9651E-04
  -6.820  0.4176E-20  0.9651E-04
  -6.815  0.5331E-20  0.9651E-04
  -6.810  0.6801E-20  0.9651E-04
  -6.805  0.8671E-20  0.9651E-04
  -6.800  0.1105E-19  0.9651E-04
  -6.795  0.1406E-19  0.9651E-04
  -6.790  0.1790E-19  0.9651E-04
  -6.785  0.2275E-19  0.9651E-04
  -6.780  0.2891E-19  0.9651E-04
  -6.775  0.3671E-19  0.9651E-04
  -6.770  0.4658E-19  0.9651E-04
  -6.765  0.5907E-19  0.9651E-04
  -6.760  0.7486E-19  0.9651E-04
  -6.755  0.9480E-19  0.9651E-04
  -6.750  0.1200E-18  0.9651E-04
  -6.745  0.1517E-18  0.9651E-04
  -6.740  0.1918E-18  0.9651E-04
  -6.735  0.2422E-18  0.9651E-04
  -6.730  0.3057E-18  0.9651E-04
  -6.725  0.3856E-18  0.9651E-04
  -6.720  0.4861E-18  0.9651E-04
  -6.715  0.6123E-18  0.9651E-04
  -6.710  0.7708E-18  0.9651E-04
  -6.705  0.9696E-18  0.9651E-04
  -6.700  0.1219E-17  0.9651E-04
  -6.695  0.1531E-17  0.9651E-04
  -6.690  0.1923E-17  0.9651E-04
  -6.685  0.2412E-17  0.9651E-04
  -6.680  0.3024E-17  0.9651E-04
  -6.675  0.3789E-17  0.9651E-04
  -6.670  0.4745E-17  0.9651E-04
  -6.665  0.5937E-17  0.9651E-04
  -6.660  0.7424E-17  0.9651E-04
  -6.655  0.9277E-17  0.9651E-04
  -6.650  0.1159E-16  0.9651E-04
  -6.645  0.1446E-16  0.9651E-04
  -6.640  0.1803E-16  0.9651E-04
  -6.635  0.2247E-16  0.9651E-04
  -6.630  0.2799E-16  0.9651E-04
  -6.625  0.3483E-16  0.9651E-04
  -6.620  0.4333E-16  0.9651E-04
  -6.615  0.5386E-16  0.9651E-04
  -6.610  0.6690E-16  0.9651E-04
  -6.605  0.8304E-16  0.9651E-04
  -6.600  0.1030E-15  0.9651E-04
  -6.595  0.1277E-15  0.9651E-04
  -6.590  0.1582E-15  0.9651E-04
  -6.585  0.1959E-15  0.9651E-04
  -6.580  0.2423E-15  0.9651E-04
  -6.575  0.2996E-15  0.9651E-04
  -6.570  0.3702E-15  0.9651E-04
  -6.565  0.4571E-15  0.9651E-04
  -6.560  0.5640E-15  0.9651E-04
  -6.555  0.6955E-15  0.9651E-04
  -6.550  0.8570E-15  0.9651E-04
  -6.545  0.1055E-14  0.9651E-04
  -6.540  0.1299E-14  0.9651E-04
  -6.535  0.1597E-14  0.9651E-04
  -6.530  0.1963E-14  0.9651E-04
  -6.525  0.2411E-14  0.9651E-04
  -6.520  0.2959E-14  0.9651E-04
  -6.515  0.3630E-14  0.9651E-04
  -6.510  0.4449E-14  0.9651E-04
  -6.505  0.5449E-14  0.9651E-04
  -6.500  0.6671E-14  0.9651E-04
  -6.495  0.8160E-14  0.9651E-04
  -6.490  0.9976E-14  0.9651E-04
  -6.485  0.1219E-13  0.9651E-04
  -6.480  0.1488E-13  0.9651E-04
  -6.475  0.1815E-13  0.9651E-04
  -6.470  0.2213E-13  0.9651E-04
  -6.465  0.2697E-13  0.9651E-04
  -6.460  0.3284E-13  0.9651E-04
  -6.455  0.3996E-13  0.9651E-04
  -6.450  0.4859E-13  0.9651E-04
  -6.445  0.5904E-13  0.9651E-04
  -6.440  0.7170E-13  0.9651E-04
  -6.435  0.8701E-13  0.9651E-04
  -6.430  0.1055E-12  0.9651E-04
  -6.425  0.1279E-12  0.9651E-04
  -6.420  0.1549E-12  0.9651E-04
  -6.415  0.1875E-12  0.9651E-04
  -6.410  0.2268E-12  0.9651E-04
  -6.405  0.2741E-12  0.9651E-04
  -6.400  0.3311E-12  0.9651E-04
  -6.395  0.3997E-12  0.9651E-04
  -6.390  0.4822E-12  0.9651E-04
  -6.385  0.5814E-12  0.9651E-04
  -6.380  0.7004E-12  0.9651E-04
  -6.375  0.8433E-12  0.9651E-04
  -6.370  0.1015E-11  0.9651E-04
  -6.365  0.1220E-11  0.9651E-04
  -6.360  0.1466E-11  0.9651E-04
  -6.355  0.1760E-11  0.9651E-04
  -6.350  0.2112E-11  0.9651E-04
  -6.345  0.2533E-11  0.9651E-04
  -6.340  0.3035E-11  0.9651E-04
  -6.335  0.3635E-11  0.9651E-04
  -6.330  0.4351E-11  0.9651E-04
  -6.325  0.5203E-11  0.9651E-04
  -6.320  0.6219E-11  0.9651E-04
  -6.315  0.7429E-11  0.9651E-04
  -6.310  0.8867E-11  0.9651E-04
  -6.305  0.1058E-10  0.9651E-04
  -6.300  0.1261E-10  0.9651E-04
  -6.295  0.1502E-10  0.9651E-04
  -6.290  0.1788E-10  0.9651E-04
  -6.285  0.2127E-10  0.9651E-04
  -6.280  0.2529E-10  0.9651E-04
  -6.275  0.3005E-10  0.9651E-04
  -6.270  0.3568E-10  0.9651E-04
  -6.265  0.4234E-10  0.9651E-04
  -6.260  0.5020E-10  0.9651E-04
  -6.255  0.5949E-10  0.9651E-04
  -6.250  0.7045E-10  0.9651E-04
  -6.245  0.8337E-10  0.9651E-04
  -6.240  0.9860E-10  0.9651E-04
  -6.235  0.1165E-09  0.9651E-04
  -6.230  0.1376E-09  0.9651E-04
  -6.225  0.1625E-09  0.9651E-04
  -6.220  0.1916E-09  0.9651E-04
  -6.215  0.2259E-09  0.9651E-04
  -6.210  0.2661E-09  0.9651E-04
  -6.205  0.3132E-09  0.9651E-04
  -6.200  0.3685E-09  0.9651E-04
  -6.195  0.4332E-09  0.9651E-04
  -6.190  0.5090E-09  0.9651E-04
  -6.185  0.5976E-09  0.9651E-04
  -6.180  0.7012E-09  0.9651E-04
  -6.175  0.8222E-09  0.9651E-04
  -6.170  0.9634E-09  0.9651E-04
  -6.165  0.1128E-08  0.9651E-04
  -6.160  0.1320E-08  0.9651E-04
  -6.155  0.1544E-08  0.9651E-04
  -6.150  0.1804E-08  0.9651E-04
  -6.145  0.2107E-08  0.9651E-04
  -6.140  0.2460E-08  0.9651E-04
  -6.135  0.2869E-08  0.9651E-04
  -6.130  0.3344E-08  0.9651E-04
  -6.125  0.3896E-08  0.9651E-04
  -6.120  0.4535E-08  0.9651E-04
  -6.115  0.5276E-08  0.9651E-04
  -6.110  0.6133E-08  0.9651E-04
  -6.105  0.7126E-08  0.9651E-04
  -6.100  0.8273E-08  0.9651E-04
  -6.095  0.9599E-08  0.9651E-04
  -6.090  0.1113E-07  0.9651E-04
  -6.085  0.1290E-07  0.9651E-04
  -6.080  0.1494E-07  0.9651E-04
  -6.075  0.1728E-07  0.9651E-04
  -6.070  0.1999E-07  0.9651E-04
  -6.065  0.2310E-07  0.9652E-04
  -6.060  0.2668E-07  0.9652E-04
  -6.055  0.3080E-07  0.9652E-04
  -6.050  0.3552E-07  0.9652E-04
  -6.045  0.4095E-07  0.9652E-04
  -6.040  0.4717E-07  0.9652E-04
  -6.035  0.5430E-07  0.9652E-04
  -6.030  0.6247E-07  0.9652E-04
  -6.025  0.7182E-07  0.9652E-04
  -6.020  0.8252E-07  0.9652E-04
  -6.015  0.9474E-07  0.9652E-04
  -6.010  0.1087E-06  0.9652E-04
  -6.005  0.1247E-06  0.9652E-04
  -6.000  0.1429E-06  0.9652E-04
  -5.995  0.1636E-06  0.9652E-04
  -5.990  0.1872E-06  0.9652E-04
  -5.985  0.2141E-06  0.9652E-04
  -5.980  0.2447E-06  0.9652E-04
  -5.975  0.2795E-06  0.9653E-04
  -5.970  0.3191E-06  0.9653E-04
  -5.965  0.3640E-06  0.9653E-04
  -5.960  0.4149E-06  0.9653E-04
  -5.955  0.4727E-06  0.9653E-04
  -5.950  0.5381E-06  0.9654E-04
  -5.945  0.6123E-06  0.9654E-04
  -5.940  0.6962E-06  0.9654E-04
  -5.935  0.7910E-06  0.9655E-04
  -5.930  0.8982E-06  0.9655E-04
  -5.925  0.1019E-05  0.9656E-04
  -5.920  0.1156E-05  0.9656E-04
  -5.915  0.1310E-05  0.9657E-04
  -5.910  0.1484E-05  0.9658E-04
  -5.905  0.1679E-05  0.9658E-04
  -5.900  0.1899E-05  0.9659E-04
  -5.895  0.2147E-05  0.9660E-04
  -5.890  0.2425E-05  0.9662E-04
  -5.885  0.2738E-05  0.9663E-04
  -5.880  0.3089E-05  0.9665E-04
  -5.875  0.3483E-05  0.9666E-04
  -5.870  0.3924E-05  0.9668E-04
  -5.865  0.4418E-05  0.9670E-04
  -5.860  0.4972E-05  0.9673E-04
  -5.855  0.5591E-05  0.9676E-04
  -5.850  0.6283E-05  0.9679E-04
  -5.845  0.7057E-05  0.9682E-04
  -5.840  0.7920E-05  0.9686E-04
  -5.835  0.8883E-05  0.9691E-04
  -5.830  0.9957E-05  0.9696E-04
  -5.825  0.1115E-04  0.9701E-04
  -5.820  0.1249E-04  0.9708E-04
  -5.815  0.1397E-04  0.9715E-04
  -5.810  0.1562E-04  0.9722E-04
  -5.805  0.1745E-04  0.9731E-04
  -5.800  0.1948E-04  0.9741E-04
  -5.795  0.2174E-04  0.9752E-04
  -5.790  0.2424E-04  0.9764E-04
  -5.785  0.2702E-04  0.9777E-04
  -5.780  0.3009E-04  0.9792E-04
  -5.775  0.3349E-04  0.9809E-04
  -5.770  0.3725E-04  0.9828E-04
  -5.765  0.4141E-04  0.9848E-04
  -5.760  0.4600E-04  0.9871E-04
  -5.755  0.5107E-04  0.9897E-04
  -5.750  0.5665E-04  0.9925E-04
  -5.745  0.6281E-04  0.9957E-04
  -5.740  0.6960E-04  0.9992E-04
  -5.735  0.7707E-04  0.1003E-03
  -5.730  0.8528E-04  0.1007E-03
  -5.725  0.9431E-04  0.1012E-03
  -5.720  0.1042E-03  0.1017E-03
  -5.715  0.1151E-03  0.1023E-03
  -5.710  0.1271E-03  0.1029E-03
  -5.705  0.1402E-03  0.1036E-03
  -5.700  0.1545E-03  0.1044E-03
  -5.695  0.1702E-03  0.1053E-03
  -5.690  0.1874E-03  0.1062E-03
  -5.685  0.2062E-03  0.1072E-03
  -5.680  0.2268E-03  0.1084E-03
  -5.675  0.2492E-03  0.1096E-03
  -5.670  0.2737E-03  0.1110E-03
  -5.665  0.3003E-03  0.1125E-03
  -5.660  0.3294E-03  0.1141E-03
  -5.655  0.3611E-03  0.1159E-03
  -5.650  0.3955E-03  0.1179E-03
  -5.645  0.4330E-03  0.1201E-03
  -5.640  0.4737E-03  0.1224E-03
  -5.635  0.5179E-03  0.1250E-03
  -5.630  0.5659E-03  0.1279E-03
  -5.625  0.6179E-03  0.1309E-03
  -5.620  0.6743E-03  0.1343E-03
  -5.615  0.7354E-03  0.1380E-03
  -5.610  0.8016E-03  0.1420E-03
  -5.605  0.8731E-03  0.1464E-03
  -5.600  0.9504E-03  0.1511E-03
  -5.595  0.1034E-02  0.1563E-03
  -5.590  0.1124E-02  0.1619E-03
  -5.585  0.1221E-02  0.1680E-03
  -5.580  0.1326E-02  0.1746E-03
  -5.575  0.1439E-02  0.1818E-03
  -5.570  0.1561E-02  0.1896E-03
  -5.565  0.1691E-02  0.1981E-03
  -5.560  0.1832E-02  0.2073E-03
  -5.555  0.1983E-02  0.2172E-03
  -5.550  0.2145E-02  0.2279E-03
  -5.545  0.2319E-02  0.2395E-03
  -5.540  0.2506E-02  0.2520E-03
  -5.535  0.2706E-02  0.2656E-03
  -5.530  0.2920E-02  0.2802E-03
  -5.525  0.3149E-02  0.2959E-03
  -5.520  0.3394E-02  0.3129E-03
  -5.515  0.3655E-02  0.3311E-03
  -5.510  0.3935E-02  0.3508E-03
  -5.505  0.4233E-02  0.3720E-03
  -5.500  0.4551E-02  0.3947E-03
  -5.495  0.4890E-02  0.4192E-03
  -5.490  0.5251E-02  0.4454E-03
  -5.485  0.5636E-02  0.4736E-03
  -5.480  0.6044E-02  0.5038E-03
  -5.475  0.6479E-02  0.5362E-03
  -5.470  0.6940E-02  0.5709E-03
  -5.465  0.7430E-02  0.6081E-03
  -5.460  0.7949E-02  0.6478E-03
  -5.455  0.8499E-02  0.6903E-03
  -5.450  0.9083E-02  0.7357E-03
  -5.445  0.9700E-02  0.7842E-03
  -5.440  0.1035E-01  0.8360E-03
  -5.435  0.1104E-01  0.8912E-03
  -5.430  0.1177E-01  0.9501E-03
  -5.425  0.1254E-01  0.1013E-02
  -5.420  0.1336E-01  0.1080E-02
  -5.415  0.1421E-01  0.1151E-02
  -5.410  0.1511E-01  0.1226E-02
  -5.405  0.1606E-01  0.1307E-02
  -5.400  0.1706E-01  0.1392E-02
  -5.395  0.1812E-01  0.1482E-02
  -5.390  0.1922E-01  0.1579E-02
  -5.385  0.2038E-01  0.1680E-02
  -5.380  0.2160E-01  0.1788E-02
  -5.375  0.2287E-01  0.1903E-02
  -5.370  0.2421E-01  0.2024E-02
  -5.365  0.2561E-01  0.2152E-02
  -5.360  0.2708E-01  0.2287E-02
  -5.355  0.2861E-01  0.2430E-02
  -5.350  0.3022E-01  0.2581E-02
  -5.345  0.3189E-01  0.2741E-02
  -5.340  0.3364E-01  0.2909E-02
  -5.335  0.3546E-01  0.3086E-02
  -5.330  0.3736E-01  0.3273E-02
  -5.325  0.3934E-01  0.3470E-02
  -5.320  0.4140E-01  0.3677E-02
  -5.315  0.4354E-01  0.3895E-02
  -5.310  0.4577E-01  0.4123E-02
  -5.305  0.4808E-01  0.4364E-02
  -5.300  0.5048E-01  0.4616E-02
  -5.295  0.5298E-01  0.4881E-02
  -5.290  0.5556E-01  0.5159E-02
  -5.285  0.5824E-01  0.5450E-02
  -5.280  0.6101E-01  0.5755E-02
  -5.275  0.6388E-01  0.6075E-02
  -5.270  0.6684E-01  0.6409E-02
  -5.265  0.6991E-01  0.6758E-02
  -5.260  0.7307E-01  0.7124E-02
  -5.255  0.7634E-01  0.7505E-02
  -5.250  0.7971E-01  0.7904E-02
  -5.245  0.8318E-01  0.8320E-02
  -5.240  0.8675E-01  0.8754E-02
  -5.235  0.9043E-01  0.9206E-02
  -5.230  0.9422E-01  0.9677E-02
  -5.225  0.9811E-01  0.1017E-01
  -5.220  0.1021E+00  0.1068E-01
  -5.215  0.1062E+00  0.1121E-01
  -5.210  0.1104E+00  0.1176E-01
  -5.205  0.1147E+00  0.1233E-01
  -5.200  0.1191E+00  0.1293E-01
  -5.195  0.1237E+00  0.1355E-01
  -5.190  0.1283E+00  0.1419E-01
  -5.185  0.1330E+00  0.1486E-01
  -5.180  0.1379E+00  0.1554E-01
  -5.175  0.1428E+00  0.1626E-01
  -5.170  0.1478E+00  0.1700E-01
  -5.165  0.1530E+00  0.1776E-01
  -5.160  0.1582E+00  0.1855E-01
  -5.155  0.1635E+00  0.1937E-01
  -5.150  0.1689E+00  0.2022E-01
  -5.145  0.1745E+00  0.2109E-01
  -5.140  0.1801E+00  0.2199E-01
  -5.135  0.1858E+00  0.2292E-01
  -5.130  0.1915E+00  0.2387E-01
  -5.125  0.1974E+00  0.2486E-01
  -5.120  0.2033E+00  0.2588E-01
  -5.115  0.2093E+00  0.2692E-01
  -5.110  0.2154E+00  0.2800E-01
  -5.105  0.2216E+00  0.2911E-01
  -5.100  0.2278E+00  0.3025E-01
  -5.095  0.2341E+00  0.3142E-01
  -5.090  0.2405E+00  0.3262E-01
  -5.085  0.2469E+00  0.3386E-01
  -5.080  0.2534E+00  0.3512E-01
  -5.075  0.2599E+00  0.3642E-01
  -5.070  0.2665E+00  0.3776E-01
  -5.065  0.2731E+00  0.3912E-01
  -5.060  0.2797E+00  0.4052E-01
  -5.055  0.2864E+00  0.4195E-01
  -5.050  0.2931E+00  0.4342E-01
  -5.045  0.2998E+00  0.4492E-01
  -5.040  0.3066E+00  0.4645E-01
  -5.035  0.3134E+00  0.4802E-01
  -5.030  0.3202E+00  0.4962E-01
  -5.025  0.3269E+00  0.5125E-01
  -5.020  0.3338E+00  0.5292E-01
  -5.015  0.3406E+00  0.5462E-01
  -5.010  0.3474E+00  0.5636E-01
  -5.005  0.3541E+00  0.5813E-01
  -5.000  0.3609E+00  0.5993E-01
  -4.995  0.3677E+00  0.6177E-01
  -4.990  0.3744E+00  0.6364E-01
  -4.985  0.3811E+00  0.6555E-01
  -4.980  0.3878E+00  0.6749E-01
  -4.975  0.3945E+00  0.6946E-01
  -4.970  0.4011E+00  0.7147E-01
  -4.965  0.4077E+00  0.7351E-01
  -4.960  0.4142E+00  0.7558E-01
  -4.955  0.4207E+00  0.7768E-01
  -4.950  0.4272E+00  0.7982E-01
  -4.945  0.4335E+00  0.8198E-01
  -4.940  0.4399E+00  0.8418E-01
  -4.935  0.4461E+00  0.8641E-01
  -4.930  0.4523E+00  0.8868E-01
  -4.925  0.4585E+00  0.9097E-01
  -4.920  0.4645E+00  0.9329E-01
  -4.915  0.4705E+00  0.9564E-01
  -4.910  0.4765E+00  0.9803E-01
  -4.905  0.4823E+00  0.1004E+00
  -4.900  0.4881E+00  0.1029E+00
  -4.895  0.4938E+00  0.1053E+00
  -4.890  0.4994E+00  0.1078E+00
  -4.885  0.5049E+00  0.1104E+00
  -4.880  0.5103E+00  0.1129E+00
  -4.875  0.5157E+00  0.1155E+00
  -4.870  0.5210E+00  0.1181E+00
  -4.865  0.5261E+00  0.1207E+00
  -4.860  0.5312E+00  0.1234E+00
  -4.855  0.5362E+00  0.1261E+00
  -4.850  0.5411E+00  0.1288E+00
  -4.845  0.5459E+00  0.1315E+00
  -4.840  0.5507E+00  0.1343E+00
  -4.835  0.5553E+00  0.1370E+00
  -4.830  0.5598E+00  0.1398E+00
  -4.825  0.5643E+00  0.1427E+00
  -4.820  0.5686E+00  0.1455E+00
  -4.815  0.5729E+00  0.1484E+00
  -4.810  0.5771E+00  0.1512E+00
  -4.805  0.5812E+00  0.1542E+00
  -4.800  0.5852E+00  0.1571E+00
  -4.795  0.5891E+00  0.1600E+00
  -4.790  0.5929E+00  0.1630E+00
  -4.785  0.5966E+00  0.1660E+00
  -4.780  0.6003E+00  0.1690E+00
  -4.775  0.6039E+00  0.1720E+00
  -4.770  0.6073E+00  0.1750E+00
  -4.765  0.6108E+00  0.1781E+00
  -4.760  0.6141E+00  0.1812E+00
  -4.755  0.6173E+00  0.1842E+00
  -4.750  0.6205E+00  0.1873E+00
  -4.745  0.6236E+00  0.1905E+00
  -4.740  0.6267E+00  0.1936E+00
  -4.735  0.6296E+00  0.1967E+00
  -4.730  0.6325E+00  0.1999E+00
  -4.725  0.6354E+00  0.2031E+00
  -4.720  0.6381E+00  0.2063E+00
  -4.715  0.6408E+00  0.2095E+00
  -4.710  0.6435E+00  0.2127E+00
  -4.705  0.6461E+00  0.2159E+00
  -4.700  0.6486E+00  0.2192E+00
  -4.695  0.6511E+00  0.2224E+00
  -4.690  0.6535E+00  0.2257E+00
  -4.685  0.6559E+00  0.2290E+00
  -4.680  0.6582E+00  0.2323E+00
  -4.675  0.6605E+00  0.2356E+00
  -4.670  0.6627E+00  0.2389E+00
  -4.665  0.6649E+00  0.2422E+00
  -4.660  0.6671E+00  0.2455E+00
  -4.655  0.6692E+00  0.2489E+00
  -4.650  0.6713E+00  0.2522E+00
  -4.645  0.6734E+00  0.2556E+00
  -4.640  0.6754E+00  0.2590E+00
  -4.635  0.6775E+00  0.2624E+00
  -4.630  0.6794E+00  0.2658E+00
  -4.625  0.6814E+00  0.2692E+00
  -4.620  0.6833E+00  0.2726E+00
  -4.615  0.6853E+00  0.2760E+00
  -4.610  0.6872E+00  0.2795E+00
  -4.605  0.6890E+00  0.2829E+00
  -4.600  0.6909E+00  0.2864E+00
  -4.595  0.6928E+00  0.2898E+00
  -4.590  0.6946E+00  0.2933E+00
  -4.585  0.6965E+00  0.2968E+00
  -4.580  0.6983E+00  0.3003E+00
  -4.575  0.7001E+00  0.3038E+00
  -4.570  0.7020E+00  0.3073E+00
  -4.565  0.7038E+00  0.3108E+00
  -4.560  0.7056E+00  0.3143E+00
  -4.555  0.7074E+00  0.3179E+00
  -4.550  0.7093E+00  0.3214E+00
  -4.545  0.7111E+00  0.3250E+00
  -4.540  0.7129E+00  0.3285E+00
  -4.535  0.7148E+00  0.3321E+00
  -4.530  0.7166E+00  0.3357E+00
  -4.525  0.7185E+00  0.3393E+00
  -4.520  0.7204E+00  0.3429E+00
  -4.515  0.7222E+00  0.3465E+00
  -4.510  0.7241E+00  0.3501E+00
  -4.505  0.7261E+00  0.3537E+00
  -4.500  0.7280E+00  0.3574E+00
  -4.495  0.7299E+00  0.3610E+00
  -4.490  0.7319E+00  0.3647E+00
  -4.485  0.7339E+00  0.3684E+00
  -4.480  0.7359E+00  0.3720E+00
  -4.475  0.7379E+00  0.3757E+00
  -4.470  0.7399E+00  0.3794E+00
  -4.465  0.7420E+00  0.3831E+00
  -4.460  0.7440E+00  0.3869E+00
  -4.455  0.7461E+00  0.3906E+00
  -4.450  0.7483E+00  0.3943E+00
  -4.445  0.7504E+00  0.3981E+00
  -4.440  0.7526E+00  0.4018E+00
  -4.435  0.7548E+00  0.4056E+00
  -4.430  0.7570E+00  0.4094E+00
  -4.425  0.7592E+00  0.4132E+00
  -4.420  0.7615E+00  0.4170E+00
  -4.415  0.7638E+00  0.4208E+00
  -4.410  0.7661E+00  0.4247E+00
  -4.405  0.7684E+00  0.4285E+00
  -4.400  0.7708E+00  0.4324E+00
  -4.395  0.7731E+00  0.4362E+00
  -4.390  0.7755E+00  0.4401E+00
  -4.385  0.7780E+00  0.4440E+00
  -4.380  0.7804E+00  0.4479E+00
  -4.375  0.7829E+00  0.4518E+00
  -4.370  0.7853E+00  0.4557E+00
  -4.365  0.7879E+00  0.4597E+00
  -4.360  0.7904E+00  0.4636E+00
  -4.355  0.7929E+00  0.4676E+00
  -4.350  0.7955E+00  0.4716E+00
  -4.345  0.7980E+00  0.4756E+00
  -4.340  0.8006E+00  0.4796E+00
  -4.335  0.8032E+00  0.4836E+00
  -4.330  0.8059E+00  0.4876E+00
  -4.325  0.8085E+00  0.4916E+00
  -4.320  0.8111E+00  0.4957E+00
  -4.315  0.8138E+00  0.4998E+00
  -4.310  0.8164E+00  0.5038E+00
  -4.305  0.8191E+00  0.5079E+00
  -4.300  0.8217E+00  0.5121E+00
  -4.295  0.8244E+00  0.5162E+00
  -4.290  0.8270E+00  0.5203E+00
  -4.285  0.8297E+00  0.5245E+00
  -4.280  0.8323E+00  0.5286E+00
  -4.275  0.8350E+00  0.5328E+00
  -4.270  0.8376E+00  0.5370E+00
  -4.265  0.8402E+00  0.5412E+00
  -4.260  0.8428E+00  0.5454E+00
  -4.255  0.8454E+00  0.5496E+00
  -4.250  0.8480E+00  0.5539E+00
  -4.245  0.8506E+00  0.5581E+00
  -4.240  0.8531E+00  0.5624E+00
  -4.235  0.8556E+00  0.5667E+00
  -4.230  0.8581E+00  0.5710E+00
  -4.225  0.8605E+00  0.5753E+00
  -4.220  0.8630E+00  0.5796E+00
  -4.215  0.8654E+00  0.5839E+00
  -4.210  0.8677E+00  0.5882E+00
  -4.205  0.8700E+00  0.5926E+00
  -4.200  0.8723E+00  0.5969E+00
  -4.195  0.8745E+00  0.6013E+00
  -4.190  0.8767E+00  0.6057E+00
  -4.185  0.8788E+00  0.6101E+00
  -4.180  0.8809E+00  0.6145E+00
  -4.175  0.8830E+00  0.6189E+00
  -4.170  0.8849E+00  0.6233E+00
  -4.165  0.8869E+00  0.6278E+00
  -4.160  0.8887E+00  0.6322E+00
  -4.155  0.8905E+00  0.6367E+00
  -4.150  0.8923E+00  0.6411E+00
  -4.145  0.8940E+00  0.6456E+00
  -4.140  0.8956E+00  0.6501E+00
  -4.135  0.8971E+00  0.6546E+00
  -4.130  0.8986E+00  0.6591E+00
  -4.125  0.9000E+00  0.6636E+00
  -4.120  0.9013E+00  0.6681E+00
  -4.115  0.9026E+00  0.6726E+00
  -4.110  0.9038E+00  0.6771E+00
  -4.105  0.9049E+00  0.6816E+00
  -4.100  0.9059E+00  0.6862E+00
  -4.095  0.9069E+00  0.6907E+00
  -4.090  0.9078E+00  0.6952E+00
  -4.085  0.9086E+00  0.6998E+00
  -4.080  0.9093E+00  0.7043E+00
  -4.075  0.9100E+00  0.7089E+00
  -4.070  0.9106E+00  0.7134E+00
  -4.065  0.9111E+00  0.7180E+00
  -4.060  0.9115E+00  0.7225E+00
  -4.055  0.9118E+00  0.7271E+00
  -4.050  0.9121E+00  0.7317E+00
  -4.045  0.9123E+00  0.7362E+00
  -4.040  0.9124E+00  0.7408E+00
  -4.035  0.9124E+00  0.7453E+00
  -4.030  0.9124E+00  0.7499E+00
  -4.025  0.9123E+00  0.7545E+00
  -4.020  0.9121E+00  0.7590E+00
  -4.015  0.9119E+00  0.7636E+00
  -4.010  0.9116E+00  0.7681E+00
  -4.005  0.9112E+00  0.7727E+00
  -4.000  0.9108E+00  0.7772E+00
  -3.995  0.9103E+00  0.7818E+00
  -3.990  0.9097E+00  0.7863E+00
  -3.985  0.9091E+00  0.7909E+00
  -3.980  0.9084E+00  0.7954E+00
  -3.975  0.9076E+00  0.8000E+00
  -3.970  0.9069E+00  0.8045E+00
  -3.965  0.9060E+00  0.8090E+00
  -3.960  0.9051E+00  0.8136E+00
  -3.955  0.9042E+00  0.8181E+00
  -3.950  0.9032E+00  0.8226E+00
  -3.945  0.9022E+00  0.8271E+00
  -3.940  0.9011E+00  0.8316E+00
  -3.935  0.9000E+00  0.8361E+00
  -3.930  0.8989E+00  0.8406E+00
  -3.925  0.8978E+00  0.8451E+00
  -3.920  0.8966E+00  0.8496E+00
  -3.915  0.8954E+00  0.8541E+00
  -3.910  0.8941E+00  0.8585E+00
  -3.905  0.8929E+00  0.8630E+00
  -3.900  0.8916E+00  0.8675E+00
  -3.895  0.8903E+00  0.8719E+00
  -3.890  0.8891E+00  0.8763E+00
  -3.885  0.8878E+00  0.8808E+00
  -3.880  0.8865E+00  0.8852E+00
  -3.875  0.8852E+00  0.8896E+00
  -3.870  0.8839E+00  0.8941E+00
  -3.865  0.8826E+00  0.8985E+00
  -3.860  0.8813E+00  0.9029E+00
  -3.855  0.8800E+00  0.9073E+00
  -3.850  0.8787E+00  0.9117E+00
  -3.845  0.8774E+00  0.9161E+00
  -3.840  0.8762E+00  0.9204E+00
  -3.835  0.8750E+00  0.9248E+00
  -3.830  0.8738E+00  0.9292E+00
  -3.825  0.8726E+00  0.9336E+00
  -3.820  0.8714E+00  0.9379E+00
  -3.815  0.8703E+00  0.9423E+00
  -3.810  0.8692E+00  0.9466E+00
  -3.805  0.8682E+00  0.9509E+00
  -3.800  0.8671E+00  0.9553E+00
  -3.795  0.8662E+00  0.9596E+00
  -3.790  0.8652E+00  0.9639E+00
  -3.785  0.8643E+00  0.9683E+00
  -3.780  0.8635E+00  0.9726E+00
  -3.775  0.8626E+00  0.9769E+00
  -3.770  0.8619E+00  0.9812E+00
  -3.765  0.8612E+00  0.9855E+00
  -3.760  0.8605E+00  0.9898E+00
  -3.755  0.8599E+00  0.9941E+00
  -3.750  0.8594E+00  0.9984E+00
  -3.745  0.8589E+00  0.1003E+01
  -3.740  0.8585E+00  0.1007E+01
  -3.735  0.8581E+00  0.1011E+01
  -3.730  0.8578E+00  0.1016E+01
  -3.725  0.8576E+00  0.1020E+01
  -3.720  0.8575E+00  0.1024E+01
  -3.715  0.8574E+00  0.1028E+01
  -3.710  0.8574E+00  0.1033E+01
  -3.705  0.8574E+00  0.1037E+01
  -3.700  0.8576E+00  0.1041E+01
  -3.695  0.8578E+00  0.1046E+01
  -3.690  0.8581E+00  0.1050E+01
  -3.685  0.8585E+00  0.1054E+01
  -3.680  0.8590E+00  0.1058E+01
  -3.675  0.8596E+00  0.1063E+01
  -3.670  0.8602E+00  0.1067E+01
  -3.665  0.8610E+00  0.1071E+01
  -3.660  0.8618E+00  0.1076E+01
  -3.655  0.8628E+00  0.1080E+01
  -3.650  0.8638E+00  0.1084E+01
  -3.645  0.8649E+00  0.1089E+01
  -3.640  0.8662E+00  0.1093E+01
  -3.635  0.8675E+00  0.1097E+01
  -3.630  0.8689E+00  0.1102E+01
  -3.625  0.8705E+00  0.1106E+01
  -3.620  0.8721E+00  0.1110E+01
  -3.615  0.8739E+00  0.1115E+01
  -3.610  0.8758E+00  0.1119E+01
  -3.605  0.8778E+00  0.1123E+01
  -3.600  0.8799E+00  0.1128E+01
  -3.595  0.8821E+00  0.1132E+01
  -3.590  0.8844E+00  0.1137E+01
  -3.585  0.8869E+00  0.1141E+01
  -3.580  0.8894E+00  0.1146E+01
  -3.575  0.8921E+00  0.1150E+01
  -3.570  0.8949E+00  0.1155E+01
  -3.565  0.8979E+00  0.1159E+01
  -3.560  0.9009E+00  0.1164E+01
  -3.555  0.9041E+00  0.1168E+01
  -3.550  0.9074E+00  0.1173E+01
  -3.545  0.9109E+00  0.1177E+01
  -3.540  0.9144E+00  0.1182E+01
  -3.535  0.9181E+00  0.1186E+01
  -3.530  0.9219E+00  0.1191E+01
  -3.525  0.9258E+00  0.1196E+01
  -3.520  0.9299E+00  0.1200E+01
  -3.515  0.9341E+00  0.1205E+01
  -3.510  0.9384E+00  0.1210E+01
  -3.505  0.9428E+00  0.1214E+01
  -3.500  0.9474E+00  0.1219E+01
  -3.495  0.9521E+00  0.1224E+01
  -3.490  0.9569E+00  0.1229E+01
  -3.485  0.9618E+00  0.1233E+01
  -3.480  0.9669E+00  0.1238E+01
  -3.475  0.9721E+00  0.1243E+01
  -3.470  0.9774E+00  0.1248E+01
  -3.465  0.9828E+00  0.1253E+01
  -3.460  0.9883E+00  0.1258E+01
  -3.455  0.9939E+00  0.1263E+01
  -3.450  0.9997E+00  0.1268E+01
  -3.445  0.1006E+01  0.1273E+01
  -3.440  0.1012E+01  0.1278E+01
  -3.435  0.1018E+01  0.1283E+01
  -3.430  0.1024E+01  0.1288E+01
  -3.425  0.1030E+01  0.1293E+01
  -3.420  0.1036E+01  0.1298E+01
  -3.415  0.1043E+01  0.1304E+01
  -3.410  0.1049E+01  0.1309E+01
  -3.405  0.1056E+01  0.1314E+01
  -3.400  0.1063E+01  0.1319E+01
  -3.395  0.1070E+01  0.1325E+01
  -3.390  0.1077E+01  0.1330E+01
  -3.385  0.1084E+01  0.1336E+01
  -3.380  0.1091E+01  0.1341E+01
  -3.375  0.1098E+01  0.1347E+01
  -3.370  0.1105E+01  0.1352E+01
  -3.365  0.1112E+01  0.1358E+01
  -3.360  0.1119E+01  0.1363E+01
  -3.355  0.1127E+01  0.1369E+01
  -3.350  0.1134E+01  0.1375E+01
  -3.345  0.1142E+01  0.1380E+01
  -3.340  0.1149E+01  0.1386E+01
  -3.335  0.1157E+01  0.1392E+01
  -3.330  0.1164E+01  0.1398E+01
  -3.325  0.1172E+01  0.1403E+01
  -3.320  0.1179E+01  0.1409E+01
  -3.315  0.1187E+01  0.1415E+01
  -3.310  0.1195E+01  0.1421E+01
  -3.305  0.1202E+01  0.1427E+01
  -3.300  0.1210E+01  0.1433E+01
  -3.295  0.1218E+01  0.1439E+01
  -3.290  0.1226E+01  0.1446E+01
  -3.285  0.1233E+01  0.1452E+01
  -3.280  0.1241E+01  0.1458E+01
  -3.275  0.1249E+01  0.1464E+01
  -3.270  0.1256E+01  0.1470E+01
  -3.265  0.1264E+01  0.1477E+01
  -3.260  0.1272E+01  0.1483E+01
  -3.255  0.1279E+01  0.1490E+01
  -3.250  0.1287E+01  0.1496E+01
  -3.245  0.1295E+01  0.1502E+01
  -3.240  0.1302E+01  0.1509E+01
  -3.235  0.1310E+01  0.1515E+01
  -3.230  0.1318E+01  0.1522E+01
  -3.225  0.1325E+01  0.1529E+01
  -3.220  0.1333E+01  0.1535E+01
  -3.215  0.1340E+01  0.1542E+01
  -3.210  0.1347E+01  0.1549E+01
  -3.205  0.1355E+01  0.1556E+01
  -3.200  0.1362E+01  0.1562E+01
  -3.195  0.1370E+01  0.1569E+01
  -3.190  0.1377E+01  0.1576E+01
  -3.185  0.1384E+01  0.1583E+01
  -3.180  0.1391E+01  0.1590E+01
  -3.175  0.1398E+01  0.1597E+01
  -3.170  0.1405E+01  0.1604E+01
  -3.165  0.1412E+01  0.1611E+01
  -3.160  0.1419E+01  0.1618E+01
  -3.155  0.1426E+01  0.1625E+01
  -3.150  0.1433E+01  0.1632E+01
  -3.145  0.1440E+01  0.1640E+01
  -3.140  0.1447E+01  0.1647E+01
  -3.135  0.1453E+01  0.1654E+01
  -3.130  0.1460E+01  0.1661E+01
  -3.125  0.1466E+01  0.1669E+01
  -3.120  0.1473E+01  0.1676E+01
  -3.115  0.1479E+01  0.1684E+01
  -3.110  0.1486E+01  0.1691E+01
  -3.105  0.1492E+01  0.1698E+01
  -3.100  0.1498E+01  0.1706E+01
  -3.095  0.1504E+01  0.1713E+01
  -3.090  0.1510E+01  0.1721E+01
  -3.085  0.1516E+01  0.1729E+01
  -3.080  0.1522E+01  0.1736E+01
  -3.075  0.1528E+01  0.1744E+01
  -3.070  0.1534E+01  0.1752E+01
  -3.065  0.1540E+01  0.1759E+01
  -3.060  0.1545E+01  0.1767E+01
  -3.055  0.1551E+01  0.1775E+01
  -3.050  0.1556E+01  0.1782E+01
  -3.045  0.1561E+01  0.1790E+01
  -3.040  0.1567E+01  0.1798E+01
  -3.035  0.1572E+01  0.1806E+01
  -3.030  0.1577E+01  0.1814E+01
  -3.025  0.1582E+01  0.1822E+01
  -3.020  0.1587E+01  0.1830E+01
  -3.015  0.1591E+01  0.1838E+01
  -3.010  0.1596E+01  0.1846E+01
  -3.005  0.1600E+01  0.1854E+01
  -3.000  0.1605E+01  0.1862E+01
  -2.995  0.1609E+01  0.1870E+01
  -2.990  0.1613E+01  0.1878E+01
  -2.985  0.1617E+01  0.1886E+01
  -2.980  0.1621E+01  0.1894E+01
  -2.975  0.1625E+01  0.1902E+01
  -2.970  0.1628E+01  0.1910E+01
  -2.965  0.1632E+01  0.1918E+01
  -2.960  0.1635E+01  0.1927E+01
  -2.955  0.1638E+01  0.1935E+01
  -2.950  0.1641E+01  0.1943E+01
  -2.945  0.1644E+01  0.1951E+01
  -2.940  0.1647E+01  0.1959E+01
  -2.935  0.1649E+01  0.1968E+01
  -2.930  0.1651E+01  0.1976E+01
  -2.925  0.1654E+01  0.1984E+01
  -2.920  0.1656E+01  0.1992E+01
  -2.915  0.1657E+01  0.2001E+01
  -2.910  0.1659E+01  0.2009E+01
  -2.905  0.1660E+01  0.2017E+01
  -2.900  0.1661E+01  0.2026E+01
  -2.895  0.1662E+01  0.2034E+01
  -2.890  0.1663E+01  0.2042E+01
  -2.885  0.1664E+01  0.2051E+01
  -2.880  0.1664E+01  0.2059E+01
  -2.875  0.1664E+01  0.2067E+01
  -2.870  0.1664E+01  0.2076E+01
  -2.865  0.1664E+01  0.2084E+01
  -2.860  0.1663E+01  0.2092E+01
  -2.855  0.1663E+01  0.2101E+01
  -2.850  0.1662E+01  0.2109E+01
  -2.845  0.1660E+01  0.2117E+01
  -2.840  0.1659E+01  0.2125E+01
  -2.835  0.1657E+01  0.2134E+01
  -2.830  0.1656E+01  0.2142E+01
  -2.825  0.1653E+01  0.2150E+01
  -2.820  0.1651E+01  0.2158E+01
  -2.815  0.1649E+01  0.2167E+01
  -2.810  0.1646E+01  0.2175E+01
  -2.805  0.1643E+01  0.2183E+01
  -2.800  0.1640E+01  0.2191E+01
  -2.795  0.1636E+01  0.2200E+01
  -2.790  0.1632E+01  0.2208E+01
  -2.785  0.1629E+01  0.2216E+01
  -2.780  0.1625E+01  0.2224E+01
  -2.775  0.1620E+01  0.2232E+01
  -2.770  0.1616E+01  0.2240E+01
  -2.765  0.1611E+01  0.2248E+01
  -2.760  0.1606E+01  0.2256E+01
  -2.755  0.1601E+01  0.2264E+01
  -2.750  0.1596E+01  0.2272E+01
  -2.745  0.1591E+01  0.2280E+01
  -2.740  0.1585E+01  0.2288E+01
  -2.735  0.1580E+01  0.2296E+01
  -2.730  0.1574E+01  0.2304E+01
  -2.725  0.1568E+01  0.2312E+01
  -2.720  0.1562E+01  0.2320E+01
  -2.715  0.1556E+01  0.2327E+01
  -2.710  0.1550E+01  0.2335E+01
  -2.705  0.1543E+01  0.2343E+01
  -2.700  0.1537E+01  0.2350E+01
  -2.695  0.1530E+01  0.2358E+01
  -2.690  0.1524E+01  0.2366E+01
  -2.685  0.1517E+01  0.2373E+01
  -2.680  0.1511E+01  0.2381E+01
  -2.675  0.1504E+01  0.2388E+01
  -2.670  0.1498E+01  0.2396E+01
  -2.665  0.1491E+01  0.2403E+01
  -2.660  0.1485E+01  0.2411E+01
  -2.655  0.1479E+01  0.2418E+01
  -2.650  0.1472E+01  0.2426E+01
  -2.645  0.1466E+01  0.2433E+01
  -2.640  0.1460E+01  0.2440E+01
  -2.635  0.1454E+01  0.2447E+01
  -2.630  0.1448E+01  0.2455E+01
  -2.625  0.1442E+01  0.2462E+01
  -2.620  0.1436E+01  0.2469E+01
  -2.615  0.1431E+01  0.2476E+01
  -2.610  0.1426E+01  0.2483E+01
  -2.605  0.1421E+01  0.2490E+01
  -2.600  0.1416E+01  0.2498E+01
  -2.595  0.1411E+01  0.2505E+01
  -2.590  0.1407E+01  0.2512E+01
  -2.585  0.1403E+01  0.2519E+01
  -2.580  0.1399E+01  0.2526E+01
  -2.575  0.1396E+01  0.2533E+01
  -2.570  0.1392E+01  0.2540E+01
  -2.565  0.1389E+01  0.2547E+01
  -2.560  0.1387E+01  0.2553E+01
  -2.555  0.1385E+01  0.2560E+01
  -2.550  0.1383E+01  0.2567E+01
  -2.545  0.1381E+01  0.2574E+01
  -2.540  0.1380E+01  0.2581E+01
  -2.535  0.1380E+01  0.2588E+01
  -2.530  0.1379E+01  0.2595E+01
  -2.525  0.1379E+01  0.2602E+01
  -2.520  0.1380E+01  0.2609E+01
  -2.515  0.1381E+01  0.2616E+01
  -2.510  0.1382E+01  0.2623E+01
  -2.505  0.1384E+01  0.2629E+01
  -2.500  0.1386E+01  0.2636E+01
  -2.495  0.1389E+01  0.2643E+01
  -2.490  0.1392E+01  0.2650E+01
  -2.485  0.1396E+01  0.2657E+01
  -2.480  0.1400E+01  0.2664E+01
  -2.475  0.1405E+01  0.2671E+01
  -2.470  0.1410E+01  0.2678E+01
  -2.465  0.1415E+01  0.2685E+01
  -2.460  0.1421E+01  0.2692E+01
  -2.455  0.1428E+01  0.2700E+01
  -2.450  0.1435E+01  0.2707E+01
  -2.445  0.1442E+01  0.2714E+01
  -2.440  0.1450E+01  0.2721E+01
  -2.435  0.1459E+01  0.2729E+01
  -2.430  0.1468E+01  0.2736E+01
  -2.425  0.1477E+01  0.2743E+01
  -2.420  0.1487E+01  0.2751E+01
  -2.415  0.1497E+01  0.2758E+01
  -2.410  0.1508E+01  0.2766E+01
  -2.405  0.1519E+01  0.2773E+01
  -2.400  0.1531E+01  0.2781E+01
  -2.395  0.1543E+01  0.2789E+01
  -2.390  0.1556E+01  0.2797E+01
  -2.385  0.1569E+01  0.2804E+01
  -2.380  0.1583E+01  0.2812E+01
  -2.375  0.1596E+01  0.2820E+01
  -2.370  0.1611E+01  0.2828E+01
  -2.365  0.1625E+01  0.2836E+01
  -2.360  0.1641E+01  0.2845E+01
  -2.355  0.1656E+01  0.2853E+01
  -2.350  0.1672E+01  0.2861E+01
  -2.345  0.1688E+01  0.2870E+01
  -2.340  0.1705E+01  0.2878E+01
  -2.335  0.1721E+01  0.2887E+01
  -2.330  0.1739E+01  0.2896E+01
  -2.325  0.1756E+01  0.2904E+01
  -2.320  0.1774E+01  0.2913E+01
  -2.315  0.1792E+01  0.2922E+01
  -2.310  0.1810E+01  0.2931E+01
  -2.305  0.1829E+01  0.2940E+01
  -2.300  0.1848E+01  0.2950E+01
  -2.295  0.1867E+01  0.2959E+01
  -2.290  0.1886E+01  0.2968E+01
  -2.285  0.1906E+01  0.2978E+01
  -2.280  0.1926E+01  0.2988E+01
  -2.275  0.1945E+01  0.2997E+01
  -2.270  0.1965E+01  0.3007E+01
  -2.265  0.1986E+01  0.3017E+01
  -2.260  0.2006E+01  0.3027E+01
  -2.255  0.2026E+01  0.3037E+01
  -2.250  0.2047E+01  0.3047E+01
  -2.245  0.2067E+01  0.3058E+01
  -2.240  0.2088E+01  0.3068E+01
  -2.235  0.2109E+01  0.3079E+01
  -2.230  0.2129E+01  0.3089E+01
  -2.225  0.2150E+01  0.3100E+01
  -2.220  0.2171E+01  0.3111E+01
  -2.215  0.2191E+01  0.3122E+01
  -2.210  0.2212E+01  0.3133E+01
  -2.205  0.2233E+01  0.3144E+01
  -2.200  0.2253E+01  0.3155E+01
  -2.195  0.2274E+01  0.3167E+01
  -2.190  0.2294E+01  0.3178E+01
  -2.185  0.2314E+01  0.3190E+01
  -2.180  0.2334E+01  0.3201E+01
  -2.175  0.2354E+01  0.3213E+01
  -2.170  0.2374E+01  0.3225E+01
  -2.165  0.2393E+01  0.3237E+01
  -2.160  0.2413E+01  0.3249E+01
  -2.155  0.2432E+01  0.3261E+01
  -2.150  0.2451E+01  0.3274E+01
  -2.145  0.2469E+01  0.3286E+01
  -2.140  0.2487E+01  0.3298E+01
  -2.135  0.2505E+01  0.3311E+01
  -2.130  0.2523E+01  0.3323E+01
  -2.125  0.2541E+01  0.3336E+01
  -2.120  0.2558E+01  0.3349E+01
  -2.115  0.2574E+01  0.3362E+01
  -2.110  0.2590E+01  0.3375E+01
  -2.105  0.2606E+01  0.3388E+01
  -2.100  0.2622E+01  0.3401E+01
  -2.095  0.2637E+01  0.3414E+01
  -2.090  0.2651E+01  0.3427E+01
  -2.085  0.2666E+01  0.3441E+01
  -2.080  0.2679E+01  0.3454E+01
  -2.075  0.2692E+01  0.3468E+01
  -2.070  0.2705E+01  0.3481E+01
  -2.065  0.2717E+01  0.3495E+01
  -2.060  0.2729E+01  0.3508E+01
  -2.055  0.2740E+01  0.3522E+01
  -2.050  0.2750E+01  0.3536E+01
  -2.045  0.2760E+01  0.3550E+01
  -2.040  0.2770E+01  0.3563E+01
  -2.035  0.2778E+01  0.3577E+01
  -2.030  0.2786E+01  0.3591E+01
  -2.025  0.2794E+01  0.3605E+01
  -2.020  0.2801E+01  0.3619E+01
  -2.015  0.2807E+01  0.3633E+01
  -2.010  0.2812E+01  0.3647E+01
  -2.005  0.2817E+01  0.3661E+01
  -2.000  0.2822E+01  0.3676E+01
  -1.995  0.2825E+01  0.3690E+01
  -1.990  0.2828E+01  0.3704E+01
  -1.985  0.2830E+01  0.3718E+01
  -1.980  0.2831E+01  0.3732E+01
  -1.975  0.2832E+01  0.3746E+01
  -1.970  0.2832E+01  0.3760E+01
  -1.965  0.2832E+01  0.3775E+01
  -1.960  0.2830E+01  0.3789E+01
  -1.955  0.2828E+01  0.3803E+01
  -1.950  0.2825E+01  0.3817E+01
  -1.945  0.2822E+01  0.3831E+01
  -1.940  0.2818E+01  0.3845E+01
  -1.935  0.2813E+01  0.3859E+01
  -1.930  0.2807E+01  0.3873E+01
  -1.925  0.2801E+01  0.3887E+01
  -1.920  0.2794E+01  0.3901E+01
  -1.915  0.2786E+01  0.3915E+01
  -1.910  0.2778E+01  0.3929E+01
  -1.905  0.2769E+01  0.3943E+01
  -1.900  0.2759E+01  0.3957E+01
  -1.895  0.2749E+01  0.3970E+01
  -1.890  0.2738E+01  0.3984E+01
  -1.885  0.2727E+01  0.3998E+01
  -1.880  0.2715E+01  0.4011E+01
  -1.875  0.2702E+01  0.4025E+01
  -1.870  0.2689E+01  0.4038E+01
  -1.865  0.2676E+01  0.4052E+01
  -1.860  0.2662E+01  0.4065E+01
  -1.855  0.2647E+01  0.4078E+01
  -1.850  0.2632E+01  0.4091E+01
  -1.845  0.2616E+01  0.4104E+01
  -1.840  0.2600E+01  0.4117E+01
  -1.835  0.2584E+01  0.4130E+01
  -1.830  0.2568E+01  0.4143E+01
  -1.825  0.2551E+01  0.4156E+01
  -1.820  0.2533E+01  0.4169E+01
  -1.815  0.2516E+01  0.4181E+01
  -1.810  0.2498E+01  0.4194E+01
  -1.805  0.2480E+01  0.4206E+01
  -1.800  0.2462E+01  0.4218E+01
  -1.795  0.2443E+01  0.4231E+01
  -1.790  0.2425E+01  0.4243E+01
  -1.785  0.2406E+01  0.4255E+01
  -1.780  0.2387E+01  0.4267E+01
  -1.775  0.2369E+01  0.4279E+01
  -1.770  0.2350E+01  0.4290E+01
  -1.765  0.2331E+01  0.4302E+01
  -1.760  0.2312E+01  0.4314E+01
  -1.755  0.2294E+01  0.4325E+01
  -1.750  0.2275E+01  0.4336E+01
  -1.745  0.2257E+01  0.4348E+01
  -1.740  0.2239E+01  0.4359E+01
  -1.735  0.2221E+01  0.4370E+01
  -1.730  0.2203E+01  0.4381E+01
  -1.725  0.2186E+01  0.4392E+01
  -1.720  0.2169E+01  0.4403E+01
  -1.715  0.2152E+01  0.4414E+01
  -1.710  0.2135E+01  0.4424E+01
  -1.705  0.2119E+01  0.4435E+01
  -1.700  0.2103E+01  0.4445E+01
  -1.695  0.2087E+01  0.4456E+01
  -1.690  0.2072E+01  0.4466E+01
  -1.685  0.2058E+01  0.4476E+01
  -1.680  0.2044E+01  0.4487E+01
  -1.675  0.2030E+01  0.4497E+01
  -1.670  0.2017E+01  0.4507E+01
  -1.665  0.2004E+01  0.4517E+01
  -1.660  0.1992E+01  0.4527E+01
  -1.655  0.1980E+01  0.4537E+01
  -1.650  0.1969E+01  0.4547E+01
  -1.645  0.1958E+01  0.4556E+01
  -1.640  0.1948E+01  0.4566E+01
  -1.635  0.1939E+01  0.4576E+01
  -1.630  0.1930E+01  0.4585E+01
  -1.625  0.1921E+01  0.4595E+01
  -1.620  0.1913E+01  0.4605E+01
  -1.615  0.1906E+01  0.4614E+01
  -1.610  0.1899E+01  0.4624E+01
  -1.605  0.1893E+01  0.4633E+01
  -1.600  0.1887E+01  0.4643E+01
  -1.595  0.1882E+01  0.4652E+01
  -1.590  0.1877E+01  0.4661E+01
  -1.585  0.1873E+01  0.4671E+01
  -1.580  0.1869E+01  0.4680E+01
  -1.575  0.1866E+01  0.4689E+01
  -1.570  0.1863E+01  0.4699E+01
  -1.565  0.1861E+01  0.4708E+01
  -1.560  0.1859E+01  0.4717E+01
  -1.555  0.1858E+01  0.4727E+01
  -1.550  0.1857E+01  0.4736E+01
  -1.545  0.1856E+01  0.4745E+01
  -1.540  0.1856E+01  0.4754E+01
  -1.535  0.1856E+01  0.4764E+01
  -1.530  0.1857E+01  0.4773E+01
  -1.525  0.1858E+01  0.4782E+01
  -1.520  0.1859E+01  0.4792E+01
  -1.515  0.1860E+01  0.4801E+01
  -1.510  0.1862E+01  0.4810E+01
  -1.505  0.1863E+01  0.4820E+01
  -1.500  0.1865E+01  0.4829E+01
  -1.495  0.1867E+01  0.4838E+01
  -1.490  0.1870E+01  0.4848E+01
  -1.485  0.1872E+01  0.4857E+01
  -1.480  0.1875E+01  0.4866E+01
  -1.475  0.1877E+01  0.4876E+01
  -1.470  0.1880E+01  0.4885E+01
  -1.465  0.1883E+01  0.4894E+01
  -1.460  0.1886E+01  0.4904E+01
  -1.455  0.1888E+01  0.4913E+01
  -1.450  0.1891E+01  0.4923E+01
  -1.445  0.1894E+01  0.4932E+01
  -1.440  0.1896E+01  0.4942E+01
  -1.435  0.1899E+01  0.4951E+01
  -1.430  0.1901E+01  0.4961E+01
  -1.425  0.1904E+01  0.4970E+01
  -1.420  0.1906E+01  0.4980E+01
  -1.415  0.1908E+01  0.4989E+01
  -1.410  0.1910E+01  0.4999E+01
  -1.405  0.1912E+01  0.5008E+01
  -1.400  0.1913E+01  0.5018E+01
  -1.395  0.1914E+01  0.5028E+01
  -1.390  0.1915E+01  0.5037E+01
  -1.385  0.1916E+01  0.5047E+01
  -1.380  0.1917E+01  0.5056E+01
  -1.375  0.1917E+01  0.5066E+01
  -1.370  0.1917E+01  0.5075E+01
  -1.365  0.1917E+01  0.5085E+01
  -1.360  0.1917E+01  0.5095E+01
  -1.355  0.1916E+01  0.5104E+01
  -1.350  0.1915E+01  0.5114E+01
  -1.345  0.1914E+01  0.5123E+01
  -1.340  0.1912E+01  0.5133E+01
  -1.335  0.1911E+01  0.5142E+01
  -1.330  0.1909E+01  0.5152E+01
  -1.325  0.1906E+01  0.5162E+01
  -1.320  0.1904E+01  0.5171E+01
  -1.315  0.1901E+01  0.5181E+01
  -1.310  0.1898E+01  0.5190E+01
  -1.305  0.1895E+01  0.5200E+01
  -1.300  0.1891E+01  0.5209E+01
  -1.295  0.1887E+01  0.5218E+01
  -1.290  0.1883E+01  0.5228E+01
  -1.285  0.1879E+01  0.5237E+01
  -1.280  0.1875E+01  0.5247E+01
  -1.275  0.1870E+01  0.5256E+01
  -1.270  0.1865E+01  0.5265E+01
  -1.265  0.1860E+01  0.5275E+01
  -1.260  0.1855E+01  0.5284E+01
  -1.255  0.1850E+01  0.5293E+01
  -1.250  0.1844E+01  0.5302E+01
  -1.245  0.1838E+01  0.5312E+01
  -1.240  0.1832E+01  0.5321E+01
  -1.235  0.1827E+01  0.5330E+01
  -1.230  0.1820E+01  0.5339E+01
  -1.225  0.1814E+01  0.5348E+01
  -1.220  0.1808E+01  0.5357E+01
  -1.215  0.1802E+01  0.5366E+01
  -1.210  0.1795E+01  0.5375E+01
  -1.205  0.1789E+01  0.5384E+01
  -1.200  0.1782E+01  0.5393E+01
  -1.195  0.1776E+01  0.5402E+01
  -1.190  0.1769E+01  0.5411E+01
  -1.185  0.1763E+01  0.5419E+01
  -1.180  0.1756E+01  0.5428E+01
  -1.175  0.1750E+01  0.5437E+01
  -1.170  0.1743E+01  0.5446E+01
  -1.165  0.1737E+01  0.5454E+01
  -1.160  0.1730E+01  0.5463E+01
  -1.155  0.1724E+01  0.5472E+01
  -1.150  0.1718E+01  0.5480E+01
  -1.145  0.1711E+01  0.5489E+01
  -1.140  0.1705E+01  0.5497E+01
  -1.135  0.1699E+01  0.5506E+01
  -1.130  0.1693E+01  0.5514E+01
  -1.125  0.1687E+01  0.5523E+01
  -1.120  0.1681E+01  0.5531E+01
  -1.115  0.1675E+01  0.5539E+01
  -1.110  0.1670E+01  0.5548E+01
  -1.105  0.1664E+01  0.5556E+01
  -1.100  0.1659E+01  0.5564E+01
  -1.095  0.1653E+01  0.5573E+01
  -1.090  0.1648E+01  0.5581E+01
  -1.085  0.1643E+01  0.5589E+01
  -1.080  0.1638E+01  0.5597E+01
  -1.075  0.1634E+01  0.5606E+01
  -1.070  0.1629E+01  0.5614E+01
  -1.065  0.1625E+01  0.5622E+01
  -1.060  0.1620E+01  0.5630E+01
  -1.055  0.1616E+01  0.5638E+01
  -1.050  0.1612E+01  0.5646E+01
  -1.045  0.1608E+01  0.5654E+01
  -1.040  0.1605E+01  0.5662E+01
  -1.035  0.1601E+01  0.5670E+01
  -1.030  0.1598E+01  0.5678E+01
  -1.025  0.1594E+01  0.5686E+01
  -1.020  0.1591E+01  0.5694E+01
  -1.015  0.1588E+01  0.5702E+01
  -1.010  0.1586E+01  0.5710E+01
  -1.005  0.1583E+01  0.5718E+01
  -1.000  0.1581E+01  0.5726E+01
  -0.995  0.1578E+01  0.5734E+01
  -0.990  0.1576E+01  0.5741E+01
  -0.985  0.1574E+01  0.5749E+01
  -0.980  0.1572E+01  0.5757E+01
  -0.975  0.1570E+01  0.5765E+01
  -0.970  0.1569E+01  0.5773E+01
  -0.965  0.1567E+01  0.5781E+01
  -0.960  0.1566E+01  0.5789E+01
  -0.955  0.1565E+01  0.5796E+01
  -0.950  0.1564E+01  0.5804E+01
  -0.945  0.1563E+01  0.5812E+01
  -0.940  0.1562E+01  0.5820E+01
  -0.935  0.1561E+01  0.5828E+01
  -0.930  0.1561E+01  0.5835E+01
  -0.925  0.1560E+01  0.5843E+01
  -0.920  0.1560E+01  0.5851E+01
  -0.915  0.1560E+01  0.5859E+01
  -0.910  0.1560E+01  0.5867E+01
  -0.905  0.1560E+01  0.5874E+01
  -0.900  0.1560E+01  0.5882E+01
  -0.895  0.1560E+01  0.5890E+01
  -0.890  0.1561E+01  0.5898E+01
  -0.885  0.1561E+01  0.5906E+01
  -0.880  0.1562E+01  0.5913E+01
  -0.875  0.1563E+01  0.5921E+01
  -0.870  0.1564E+01  0.5929E+01
  -0.865  0.1565E+01  0.5937E+01
  -0.860  0.1566E+01  0.5945E+01
  -0.855  0.1567E+01  0.5953E+01
  -0.850  0.1569E+01  0.5960E+01
  -0.845  0.1570E+01  0.5968E+01
  -0.840  0.1572E+01  0.5976E+01
  -0.835  0.1573E+01  0.5984E+01
  -0.830  0.1575E+01  0.5992E+01
  -0.825  0.1577E+01  0.6000E+01
  -0.820  0.1579E+01  0.6008E+01
  -0.815  0.1581E+01  0.6016E+01
  -0.810  0.1583E+01  0.6024E+01
  -0.805  0.1586E+01  0.6031E+01
  -0.800  0.1588E+01  0.6039E+01
  -0.795  0.1591E+01  0.6047E+01
  -0.790  0.1593E+01  0.6055E+01
  -0.785  0.1596E+01  0.6063E+01
  -0.780  0.1599E+01  0.6071E+01
  -0.775  0.1602E+01  0.6079E+01
  -0.770  0.1605E+01  0.6087E+01
  -0.765  0.1608E+01  0.6095E+01
  -0.760  0.1612E+01  0.6103E+01
  -0.755  0.1615E+01  0.6111E+01
  -0.750  0.1618E+01  0.6120E+01
  -0.745  0.1622E+01  0.6128E+01
  -0.740  0.1626E+01  0.6136E+01
  -0.735  0.1630E+01  0.6144E+01
  -0.730  0.1634E+01  0.6152E+01
  -0.725  0.1638E+01  0.6160E+01
  -0.720  0.1642E+01  0.6169E+01
  -0.715  0.1646E+01  0.6177E+01
  -0.710  0.1651E+01  0.6185E+01
  -0.705  0.1655E+01  0.6193E+01
  -0.700  0.1660E+01  0.6202E+01
  -0.695  0.1665E+01  0.6210E+01
  -0.690  0.1670E+01  0.6218E+01
  -0.685  0.1675E+01  0.6227E+01
  -0.680  0.1680E+01  0.6235E+01
  -0.675  0.1685E+01  0.6243E+01
  -0.670  0.1690E+01  0.6252E+01
  -0.665  0.1696E+01  0.6260E+01
  -0.660  0.1701E+01  0.6269E+01
  -0.655  0.1707E+01  0.6277E+01
  -0.650  0.1712E+01  0.6286E+01
  -0.645  0.1718E+01  0.6295E+01
  -0.640  0.1724E+01  0.6303E+01
  -0.635  0.1730E+01  0.6312E+01
  -0.630  0.1736E+01  0.6321E+01
  -0.625  0.1742E+01  0.6329E+01
  -0.620  0.1749E+01  0.6338E+01
  -0.615  0.1755E+01  0.6347E+01
  -0.610  0.1761E+01  0.6356E+01
  -0.605  0.1768E+01  0.6364E+01
  -0.600  0.1775E+01  0.6373E+01
  -0.595  0.1781E+01  0.6382E+01
  -0.590  0.1788E+01  0.6391E+01
  -0.585  0.1795E+01  0.6400E+01
  -0.580  0.1802E+01  0.6409E+01
  -0.575  0.1809E+01  0.6418E+01
  -0.570  0.1816E+01  0.6427E+01
  -0.565  0.1823E+01  0.6436E+01
  -0.560  0.1830E+01  0.6446E+01
  -0.555  0.1837E+01  0.6455E+01
  -0.550  0.1845E+01  0.6464E+01
  -0.545  0.1852E+01  0.6473E+01
  -0.540  0.1859E+01  0.6482E+01
  -0.535  0.1867E+01  0.6492E+01
  -0.530  0.1874E+01  0.6501E+01
  -0.525  0.1882E+01  0.6511E+01
  -0.520  0.1889E+01  0.6520E+01
  -0.515  0.1897E+01  0.6530E+01
  -0.510  0.1904E+01  0.6539E+01
  -0.505  0.1912E+01  0.6549E+01
  -0.500  0.1920E+01  0.6558E+01
  -0.495  0.1927E+01  0.6568E+01
  -0.490  0.1935E+01  0.6577E+01
  -0.485  0.1943E+01  0.6587E+01
  -0.480  0.1950E+01  0.6597E+01
  -0.475  0.1958E+01  0.6607E+01
  -0.470  0.1966E+01  0.6617E+01
  -0.465  0.1973E+01  0.6626E+01
  -0.460  0.1981E+01  0.6636E+01
  -0.455  0.1989E+01  0.6646E+01
  -0.450  0.1996E+01  0.6656E+01
  -0.445  0.2004E+01  0.6666E+01
  -0.440  0.2012E+01  0.6676E+01
  -0.435  0.2019E+01  0.6686E+01
  -0.430  0.2027E+01  0.6697E+01
  -0.425  0.2034E+01  0.6707E+01
  -0.420  0.2042E+01  0.6717E+01
  -0.415  0.2050E+01  0.6727E+01
  -0.410  0.2057E+01  0.6737E+01
  -0.405  0.2065E+01  0.6748E+01
  -0.400  0.2072E+01  0.6758E+01
  -0.395  0.2080E+01  0.6769E+01
  -0.390  0.2087E+01  0.6779E+01
  -0.385  0.2094E+01  0.6789E+01
  -0.380  0.2102E+01  0.6800E+01
  -0.375  0.2109E+01  0.6811E+01
  -0.370  0.2116E+01  0.6821E+01
  -0.365  0.2124E+01  0.6832E+01
  -0.360  0.2131E+01  0.6842E+01
  -0.355  0.2138E+01  0.6853E+01
  -0.350  0.2145E+01  0.6864E+01
  -0.345  0.2152E+01  0.6875E+01
  -0.340  0.2159E+01  0.6885E+01
  -0.335  0.2167E+01  0.6896E+01
  -0.330  0.2174E+01  0.6907E+01
  -0.325  0.2181E+01  0.6918E+01
  -0.320  0.2188E+01  0.6929E+01
  -0.315  0.2195E+01  0.6940E+01
  -0.310  0.2202E+01  0.6951E+01
  -0.305  0.2209E+01  0.6962E+01
  -0.300  0.2216E+01  0.6973E+01
  -0.295  0.2223E+01  0.6984E+01
  -0.290  0.2230E+01  0.6995E+01
  -0.285  0.2237E+01  0.7006E+01
  -0.280  0.2245E+01  0.7018E+01
  -0.275  0.2252E+01  0.7029E+01
  -0.270  0.2259E+01  0.7040E+01
  -0.265  0.2266E+01  0.7052E+01
  -0.260  0.2273E+01  0.7063E+01
  -0.255  0.2281E+01  0.7074E+01
  -0.250  0.2288E+01  0.7086E+01
  -0.245  0.2296E+01  0.7097E+01
  -0.240  0.2303E+01  0.7109E+01
  -0.235  0.2311E+01  0.7120E+01
  -0.230  0.2319E+01  0.7132E+01
  -0.225  0.2327E+01  0.7144E+01
  -0.220  0.2335E+01  0.7155E+01
  -0.215  0.2343E+01  0.7167E+01
  -0.210  0.2351E+01  0.7179E+01
  -0.205  0.2360E+01  0.7191E+01
  -0.200  0.2368E+01  0.7202E+01
  -0.195  0.2377E+01  0.7214E+01
  -0.190  0.2386E+01  0.7226E+01
  -0.185  0.2395E+01  0.7238E+01
  -0.180  0.2405E+01  0.7250E+01
  -0.175  0.2414E+01  0.7262E+01
  -0.170  0.2424E+01  0.7274E+01
  -0.165  0.2434E+01  0.7287E+01
  -0.160  0.2444E+01  0.7299E+01
  -0.155  0.2455E+01  0.7311E+01
  -0.150  0.2466E+01  0.7323E+01
  -0.145  0.2477E+01  0.7336E+01
  -0.140  0.2488E+01  0.7348E+01
  -0.135  0.2500E+01  0.7361E+01
  -0.130  0.2512E+01  0.7373E+01
  -0.125  0.2524E+01  0.7386E+01
  -0.120  0.2536E+01  0.7399E+01
  -0.115  0.2549E+01  0.7411E+01
  -0.110  0.2562E+01  0.7424E+01
  -0.105  0.2576E+01  0.7437E+01
  -0.100  0.2590E+01  0.7450E+01
  -0.095  0.2604E+01  0.7463E+01
  -0.090  0.2618E+01  0.7476E+01
  -0.085  0.2633E+01  0.7489E+01
  -0.080  0.2648E+01  0.7502E+01
  -0.075  0.2664E+01  0.7516E+01
  -0.070  0.2680E+01  0.7529E+01
  -0.065  0.2696E+01  0.7543E+01
  -0.060  0.2713E+01  0.7556E+01
  -0.055  0.2730E+01  0.7570E+01
  -0.050  0.2747E+01  0.7584E+01
  -0.045  0.2764E+01  0.7597E+01
  -0.040  0.2782E+01  0.7611E+01
  -0.035  0.2801E+01  0.7625E+01
  -0.030  0.2819E+01  0.7639E+01
  -0.025  0.2838E+01  0.7654E+01
  -0.020  0.2858E+01  0.7668E+01
  -0.015  0.2877E+01  0.7682E+01
  -0.010  0.2897E+01  0.7697E+01
  -0.005  0.2917E+01  0.7711E+01
   0.000  0.2938E+01  0.7726E+01
   0.005  0.2959E+01  0.7741E+01
   0.010  0.2980E+01  0.7756E+01
   0.015  0.3001E+01  0.7771E+01
   0.020  0.3022E+01  0.7786E+01
   0.025  0.3044E+01  0.7801E+01
   0.030  0.3066E+01  0.7816E+01
   0.035  0.3088E+01  0.7832E+01
   0.040  0.3110E+01  0.7847E+01
   0.045  0.3133E+01  0.7863E+01
   0.050  0.3156E+01  0.7879E+01
   0.055  0.3178E+01  0.7895E+01
   0.060  0.3201E+01  0.7911E+01
   0.065  0.3224E+01  0.7927E+01
   0.070  0.3247E+01  0.7943E+01
   0.075  0.3270E+01  0.7959E+01
   0.080  0.3294E+01  0.7976E+01
   0.085  0.3317E+01  0.7993E+01
   0.090  0.3340E+01  0.8009E+01
   0.095  0.3363E+01  0.8026E+01
   0.100  0.3387E+01  0.8043E+01
   0.105  0.3410E+01  0.8060E+01
   0.110  0.3433E+01  0.8077E+01
   0.115  0.3456E+01  0.8094E+01
   0.120  0.3479E+01  0.8112E+01
   0.125  0.3502E+01  0.8129E+01
   0.130  0.3525E+01  0.8147E+01
   0.135  0.3547E+01  0.8165E+01
   0.140  0.3570E+01  0.8183E+01
   0.145  0.3592E+01  0.8201E+01
   0.150  0.3614E+01  0.8219E+01
   0.155  0.3636E+01  0.8237E+01
   0.160  0.3657E+01  0.8255E+01
   0.165  0.3679E+01  0.8273E+01
   0.170  0.3700E+01  0.8292E+01
   0.175  0.3721E+01  0.8311E+01
   0.180  0.3741E+01  0.8329E+01
   0.185  0.3761E+01  0.8348E+01
   0.190  0.3781E+01  0.8367E+01
   0.195  0.3801E+01  0.8386E+01
   0.200  0.3820E+01  0.8405E+01
   0.205  0.3839E+01  0.8424E+01
   0.210  0.3857E+01  0.8444E+01
   0.215  0.3876E+01  0.8463E+01
   0.220  0.3893E+01  0.8482E+01
   0.225  0.3911E+01  0.8502E+01
   0.230  0.3928E+01  0.8522E+01
   0.235  0.3944E+01  0.8541E+01
   0.240  0.3960E+01  0.8561E+01
   0.245  0.3976E+01  0.8581E+01
   0.250  0.3991E+01  0.8601E+01
   0.255  0.4006E+01  0.8621E+01
   0.260  0.4020E+01  0.8641E+01
   0.265  0.4034E+01  0.8661E+01
   0.270  0.4047E+01  0.8681E+01
   0.275  0.4060E+01  0.8702E+01
   0.280  0.4073E+01  0.8722E+01
   0.285  0.4084E+01  0.8743E+01
   0.290  0.4096E+01  0.8763E+01
   0.295  0.4107E+01  0.8784E+01
   0.300  0.4117E+01  0.8804E+01
   0.305  0.4127E+01  0.8825E+01
   0.310  0.4136E+01  0.8845E+01
   0.315  0.4145E+01  0.8866E+01
   0.320  0.4154E+01  0.8887E+01
   0.325  0.4161E+01  0.8908E+01
   0.330  0.4169E+01  0.8929E+01
   0.335  0.4175E+01  0.8949E+01
   0.340  0.4182E+01  0.8970E+01
   0.345  0.4187E+01  0.8991E+01
   0.350  0.4193E+01  0.9012E+01
   0.355  0.4197E+01  0.9033E+01
   0.360  0.4201E+01  0.9054E+01
   0.365  0.4205E+01  0.9075E+01
   0.370  0.4208E+01  0.9096E+01
   0.375  0.4211E+01  0.9117E+01
   0.380  0.4213E+01  0.9138E+01
   0.385  0.4214E+01  0.9160E+01
   0.390  0.4215E+01  0.9181E+01
   0.395  0.4216E+01  0.9202E+01
   0.400  0.4216E+01  0.9223E+01
   0.405  0.4215E+01  0.9244E+01
   0.410  0.4214E+01  0.9265E+01
   0.415  0.4212E+01  0.9286E+01
   0.420  0.4210E+01  0.9307E+01
   0.425  0.4208E+01  0.9328E+01
   0.430  0.4204E+01  0.9349E+01
   0.435  0.4201E+01  0.9370E+01
   0.440  0.4197E+01  0.9391E+01
   0.445  0.4192E+01  0.9412E+01
   0.450  0.4187E+01  0.9433E+01
   0.455  0.4182E+01  0.9454E+01
   0.460  0.4176E+01  0.9475E+01
   0.465  0.4169E+01  0.9496E+01
   0.470  0.4163E+01  0.9516E+01
   0.475  0.4155E+01  0.9537E+01
   0.480  0.4148E+01  0.9558E+01
   0.485  0.4140E+01  0.9579E+01
   0.490  0.4131E+01  0.9599E+01
   0.495  0.4123E+01  0.9620E+01
   0.500  0.4113E+01  0.9640E+01
   0.505  0.4104E+01  0.9661E+01
   0.510  0.4094E+01  0.9681E+01
   0.515  0.4084E+01  0.9702E+01
   0.520  0.4073E+01  0.9722E+01
   0.525  0.4062E+01  0.9743E+01
   0.530  0.4051E+01  0.9763E+01
   0.535  0.4040E+01  0.9783E+01
   0.540  0.4028E+01  0.9803E+01
   0.545  0.4017E+01  0.9823E+01
   0.550  0.4005E+01  0.9843E+01
   0.555  0.3992E+01  0.9863E+01
   0.560  0.3980E+01  0.9883E+01
   0.565  0.3968E+01  0.9903E+01
   0.570  0.3955E+01  0.9923E+01
   0.575  0.3942E+01  0.9942E+01
   0.580  0.3929E+01  0.9962E+01
   0.585  0.3916E+01  0.9982E+01
   0.590  0.3903E+01  0.1000E+02
   0.595  0.3890E+01  0.1002E+02
   0.600  0.3877E+01  0.1004E+02
   0.605  0.3864E+01  0.1006E+02
   0.610  0.3851E+01  0.1008E+02
   0.615  0.3838E+01  0.1010E+02
   0.620  0.3825E+01  0.1012E+02
   0.625  0.3813E+01  0.1014E+02
   0.630  0.3800E+01  0.1016E+02
   0.635  0.3788E+01  0.1017E+02
   0.640  0.3775E+01  0.1019E+02
   0.645  0.3763E+01  0.1021E+02
   0.650  0.3751E+01  0.1023E+02
   0.655  0.3740E+01  0.1025E+02
   0.660  0.3728E+01  0.1027E+02
   0.665  0.3717E+01  0.1029E+02
   0.670  0.3706E+01  0.1030E+02
   0.675  0.3696E+01  0.1032E+02
   0.680  0.3685E+01  0.1034E+02
   0.685  0.3676E+01  0.1036E+02
   0.690  0.3666E+01  0.1038E+02
   0.695  0.3657E+01  0.1040E+02
   0.700  0.3648E+01  0.1041E+02
   0.705  0.3640E+01  0.1043E+02
   0.710  0.3632E+01  0.1045E+02
   0.715  0.3625E+01  0.1047E+02
   0.720  0.3618E+01  0.1049E+02
   0.725  0.3612E+01  0.1051E+02
   0.730  0.3606E+01  0.1052E+02
   0.735  0.3600E+01  0.1054E+02
   0.740  0.3595E+01  0.1056E+02
   0.745  0.3591E+01  0.1058E+02
   0.750  0.3587E+01  0.1060E+02
   0.755  0.3584E+01  0.1061E+02
   0.760  0.3581E+01  0.1063E+02
   0.765  0.3579E+01  0.1065E+02
   0.770  0.3577E+01  0.1067E+02
   0.775  0.3576E+01  0.1069E+02
   0.780  0.3576E+01  0.1070E+02
   0.785  0.3576E+01  0.1072E+02
   0.790  0.3577E+01  0.1074E+02
   0.795  0.3578E+01  0.1076E+02
   0.800  0.3580E+01  0.1077E+02
   0.805  0.3583E+01  0.1079E+02
   0.810  0.3586E+01  0.1081E+02
   0.815  0.3589E+01  0.1083E+02
   0.820  0.3593E+01  0.1085E+02
   0.825  0.3598E+01  0.1086E+02
   0.830  0.3603E+01  0.1088E+02
   0.835  0.3609E+01  0.1090E+02
   0.840  0.3615E+01  0.1092E+02
   0.845  0.3622E+01  0.1094E+02
   0.850  0.3629E+01  0.1095E+02
   0.855  0.3637E+01  0.1097E+02
   0.860  0.3645E+01  0.1099E+02
   0.865  0.3654E+01  0.1101E+02
   0.870  0.3663E+01  0.1103E+02
   0.875  0.3672E+01  0.1105E+02
   0.880  0.3682E+01  0.1106E+02
   0.885  0.3693E+01  0.1108E+02
   0.890  0.3703E+01  0.1110E+02
   0.895  0.3714E+01  0.1112E+02
   0.900  0.3725E+01  0.1114E+02
   0.905  0.3737E+01  0.1116E+02
   0.910  0.3749E+01  0.1118E+02
   0.915  0.3761E+01  0.1119E+02
   0.920  0.3773E+01  0.1121E+02
   0.925  0.3785E+01  0.1123E+02
   0.930  0.3798E+01  0.1125E+02
   0.935  0.3810E+01  0.1127E+02
   0.940  0.3823E+01  0.1129E+02
   0.945  0.3836E+01  0.1131E+02
   0.950  0.3849E+01  0.1133E+02
   0.955  0.3862E+01  0.1135E+02
   0.960  0.3875E+01  0.1137E+02
   0.965  0.3887E+01  0.1139E+02
   0.970  0.3900E+01  0.1141E+02
   0.975  0.3913E+01  0.1143E+02
   0.980  0.3925E+01  0.1144E+02
   0.985  0.3937E+01  0.1146E+02
   0.990  0.3949E+01  0.1148E+02
   0.995  0.3961E+01  0.1150E+02
   1.000  0.3973E+01  0.1152E+02
   1.005  0.3984E+01  0.1154E+02
   1.010  0.3995E+01  0.1156E+02
   1.015  0.4006E+01  0.1158E+02
   1.020  0.4016E+01  0.1160E+02
   1.025  0.4026E+01  0.1162E+02
   1.030  0.4035E+01  0.1164E+02
   1.035  0.4044E+01  0.1166E+02
   1.040  0.4053E+01  0.1168E+02
   1.045  0.4061E+01  0.1171E+02
   1.050  0.4068E+01  0.1173E+02
   1.055  0.4075E+01  0.1175E+02
   1.060  0.4081E+01  0.1177E+02
   1.065  0.4087E+01  0.1179E+02
   1.070  0.4092E+01  0.1181E+02
   1.075  0.4097E+01  0.1183E+02
   1.080  0.4101E+01  0.1185E+02
   1.085  0.4104E+01  0.1187E+02
   1.090  0.4107E+01  0.1189E+02
   1.095  0.4109E+01  0.1191E+02
   1.100  0.4110E+01  0.1193E+02
   1.105  0.4111E+01  0.1195E+02
   1.110  0.4111E+01  0.1197E+02
   1.115  0.4110E+01  0.1199E+02
   1.120  0.4109E+01  0.1201E+02
   1.125  0.4106E+01  0.1203E+02
   1.130  0.4103E+01  0.1205E+02
   1.135  0.4100E+01  0.1207E+02
   1.140  0.4095E+01  0.1209E+02
   1.145  0.4090E+01  0.1211E+02
   1.150  0.4084E+01  0.1214E+02
   1.155  0.4078E+01  0.1216E+02
   1.160  0.4070E+01  0.1218E+02
   1.165  0.4062E+01  0.1220E+02
   1.170  0.4054E+01  0.1222E+02
   1.175  0.4044E+01  0.1224E+02
   1.180  0.4034E+01  0.1226E+02
   1.185  0.4023E+01  0.1228E+02
   1.190  0.4011E+01  0.1230E+02
   1.195  0.3999E+01  0.1232E+02
   1.200  0.3986E+01  0.1234E+02
   1.205  0.3973E+01  0.1236E+02
   1.210  0.3959E+01  0.1238E+02
   1.215  0.3944E+01  0.1240E+02
   1.220  0.3928E+01  0.1242E+02
   1.225  0.3912E+01  0.1244E+02
   1.230  0.3896E+01  0.1246E+02
   1.235  0.3878E+01  0.1247E+02
   1.240  0.3861E+01  0.1249E+02
   1.245  0.3843E+01  0.1251E+02
   1.250  0.3824E+01  0.1253E+02
   1.255  0.3805E+01  0.1255E+02
   1.260  0.3785E+01  0.1257E+02
   1.265  0.3765E+01  0.1259E+02
   1.270  0.3744E+01  0.1261E+02
   1.275  0.3723E+01  0.1263E+02
   1.280  0.3702E+01  0.1264E+02
   1.285  0.3680E+01  0.1266E+02
   1.290  0.3658E+01  0.1268E+02
   1.295  0.3635E+01  0.1270E+02
   1.300  0.3612E+01  0.1272E+02
   1.305  0.3589E+01  0.1274E+02
   1.310  0.3566E+01  0.1275E+02
   1.315  0.3542E+01  0.1277E+02
   1.320  0.3518E+01  0.1279E+02
   1.325  0.3494E+01  0.1281E+02
   1.330  0.3470E+01  0.1282E+02
   1.335  0.3446E+01  0.1284E+02
   1.340  0.3421E+01  0.1286E+02
   1.345  0.3396E+01  0.1288E+02
   1.350  0.3372E+01  0.1289E+02
   1.355  0.3347E+01  0.1291E+02
   1.360  0.3322E+01  0.1293E+02
   1.365  0.3297E+01  0.1294E+02
   1.370  0.3272E+01  0.1296E+02
   1.375  0.3247E+01  0.1297E+02
   1.380  0.3222E+01  0.1299E+02
   1.385  0.3197E+01  0.1301E+02
   1.390  0.3172E+01  0.1302E+02
   1.395  0.3147E+01  0.1304E+02
   1.400  0.3122E+01  0.1305E+02
   1.405  0.3097E+01  0.1307E+02
   1.410  0.3073E+01  0.1308E+02
   1.415  0.3048E+01  0.1310E+02
   1.420  0.3024E+01  0.1311E+02
   1.425  0.3000E+01  0.1313E+02
   1.430  0.2976E+01  0.1314E+02
   1.435  0.2952E+01  0.1316E+02
   1.440  0.2928E+01  0.1317E+02
   1.445  0.2905E+01  0.1319E+02
   1.450  0.2882E+01  0.1320E+02
   1.455  0.2859E+01  0.1322E+02
   1.460  0.2837E+01  0.1323E+02
   1.465  0.2815E+01  0.1325E+02
   1.470  0.2793E+01  0.1326E+02
   1.475  0.2771E+01  0.1327E+02
   1.480  0.2750E+01  0.1329E+02
   1.485  0.2729E+01  0.1330E+02
   1.490  0.2709E+01  0.1331E+02
   1.495  0.2689E+01  0.1333E+02
   1.500  0.2669E+01  0.1334E+02
   1.505  0.2650E+01  0.1335E+02
   1.510  0.2631E+01  0.1337E+02
   1.515  0.2612E+01  0.1338E+02
   1.520  0.2594E+01  0.1339E+02
   1.525  0.2577E+01  0.1341E+02
   1.530  0.2560E+01  0.1342E+02
   1.535  0.2543E+01  0.1343E+02
   1.540  0.2527E+01  0.1344E+02
   1.545  0.2512E+01  0.1346E+02
   1.550  0.2496E+01  0.1347E+02
   1.555  0.2482E+01  0.1348E+02
   1.560  0.2468E+01  0.1349E+02
   1.565  0.2454E+01  0.1351E+02
   1.570  0.2441E+01  0.1352E+02
   1.575  0.2429E+01  0.1353E+02
   1.580  0.2417E+01  0.1354E+02
   1.585  0.2406E+01  0.1356E+02
   1.590  0.2395E+01  0.1357E+02
   1.595  0.2385E+01  0.1358E+02
   1.600  0.2375E+01  0.1359E+02
   1.605  0.2366E+01  0.1360E+02
   1.610  0.2358E+01  0.1361E+02
   1.615  0.2350E+01  0.1363E+02
   1.620  0.2343E+01  0.1364E+02
   1.625  0.2336E+01  0.1365E+02
   1.630  0.2330E+01  0.1366E+02
   1.635  0.2324E+01  0.1367E+02
   1.640  0.2319E+01  0.1368E+02
   1.645  0.2315E+01  0.1370E+02
   1.650  0.2311E+01  0.1371E+02
   1.655  0.2308E+01  0.1372E+02
   1.660  0.2305E+01  0.1373E+02
   1.665  0.2303E+01  0.1374E+02
   1.670  0.2301E+01  0.1375E+02
   1.675  0.2300E+01  0.1377E+02
   1.680  0.2300E+01  0.1378E+02
   1.685  0.2300E+01  0.1379E+02
   1.690  0.2300E+01  0.1380E+02
   1.695  0.2302E+01  0.1381E+02
   1.700  0.2303E+01  0.1382E+02
   1.705  0.2305E+01  0.1383E+02
   1.710  0.2308E+01  0.1385E+02
   1.715  0.2311E+01  0.1386E+02
   1.720  0.2314E+01  0.1387E+02
   1.725  0.2318E+01  0.1388E+02
   1.730  0.2322E+01  0.1389E+02
   1.735  0.2327E+01  0.1390E+02
   1.740  0.2332E+01  0.1392E+02
   1.745  0.2337E+01  0.1393E+02
   1.750  0.2343E+01  0.1394E+02
   1.755  0.2349E+01  0.1395E+02
   1.760  0.2356E+01  0.1396E+02
   1.765  0.2362E+01  0.1397E+02
   1.770  0.2369E+01  0.1399E+02
   1.775  0.2377E+01  0.1400E+02
   1.780  0.2384E+01  0.1401E+02
   1.785  0.2392E+01  0.1402E+02
   1.790  0.2400E+01  0.1403E+02
   1.795  0.2408E+01  0.1405E+02
   1.800  0.2417E+01  0.1406E+02
   1.805  0.2425E+01  0.1407E+02
   1.810  0.2434E+01  0.1408E+02
   1.815  0.2443E+01  0.1409E+02
   1.820  0.2452E+01  0.1411E+02
   1.825  0.2461E+01  0.1412E+02
   1.830  0.2470E+01  0.1413E+02
   1.835  0.2479E+01  0.1414E+02
   1.840  0.2489E+01  0.1416E+02
   1.845  0.2498E+01  0.1417E+02
   1.850  0.2507E+01  0.1418E+02
   1.855  0.2517E+01  0.1419E+02
   1.860  0.2526E+01  0.1421E+02
   1.865  0.2535E+01  0.1422E+02
   1.870  0.2545E+01  0.1423E+02
   1.875  0.2554E+01  0.1424E+02
   1.880  0.2563E+01  0.1426E+02
   1.885  0.2572E+01  0.1427E+02
   1.890  0.2581E+01  0.1428E+02
   1.895  0.2590E+01  0.1430E+02
   1.900  0.2599E+01  0.1431E+02
   1.905  0.2608E+01  0.1432E+02
   1.910  0.2616E+01  0.1434E+02
   1.915  0.2625E+01  0.1435E+02
   1.920  0.2634E+01  0.1436E+02
   1.925  0.2642E+01  0.1437E+02
   1.930  0.2650E+01  0.1439E+02
   1.935  0.2658E+01  0.1440E+02
   1.940  0.2666E+01  0.1441E+02
   1.945  0.2674E+01  0.1443E+02
   1.950  0.2682E+01  0.1444E+02
   1.955  0.2690E+01  0.1445E+02
   1.960  0.2697E+01  0.1447E+02
   1.965  0.2705E+01  0.1448E+02
   1.970  0.2712E+01  0.1450E+02
   1.975  0.2719E+01  0.1451E+02
   1.980  0.2727E+01  0.1452E+02
   1.985  0.2734E+01  0.1454E+02
   1.990  0.2741E+01  0.1455E+02
   1.995  0.2748E+01  0.1456E+02
   2.000  0.2755E+01  0.1458E+02
   2.005  0.2762E+01  0.1459E+02
   2.010  0.2769E+01  0.1461E+02
   2.015  0.2776E+01  0.1462E+02
   2.020  0.2783E+01  0.1463E+02
   2.025  0.2790E+01  0.1465E+02
   2.030  0.2797E+01  0.1466E+02
   2.035  0.2803E+01  0.1467E+02
   2.040  0.2811E+01  0.1469E+02
   2.045  0.2818E+01  0.1470E+02
   2.050  0.2825E+01  0.1472E+02
   2.055  0.2832E+01  0.1473E+02
   2.060  0.2839E+01  0.1475E+02
   2.065  0.2847E+01  0.1476E+02
   2.070  0.2854E+01  0.1477E+02
   2.075  0.2862E+01  0.1479E+02
   2.080  0.2870E+01  0.1480E+02
   2.085  0.2878E+01  0.1482E+02
   2.090  0.2886E+01  0.1483E+02
   2.095  0.2895E+01  0.1485E+02
   2.100  0.2904E+01  0.1486E+02
   2.105  0.2912E+01  0.1488E+02
   2.110  0.2922E+01  0.1489E+02
   2.115  0.2931E+01  0.1490E+02
   2.120  0.2940E+01  0.1492E+02
   2.125  0.2950E+01  0.1493E+02
   2.130  0.2960E+01  0.1495E+02
   2.135  0.2971E+01  0.1496E+02
   2.140  0.2982E+01  0.1498E+02
   2.145  0.2993E+01  0.1499E+02
   2.150  0.3004E+01  0.1501E+02
   2.155  0.3015E+01  0.1502E+02
   2.160  0.3027E+01  0.1504E+02
   2.165  0.3039E+01  0.1505E+02
   2.170  0.3052E+01  0.1507E+02
   2.175  0.3065E+01  0.1508E+02
   2.180  0.3078E+01  0.1510E+02
   2.185  0.3091E+01  0.1512E+02
   2.190  0.3105E+01  0.1513E+02
   2.195  0.3119E+01  0.1515E+02
   2.200  0.3134E+01  0.1516E+02
   2.205  0.3148E+01  0.1518E+02
   2.210  0.3163E+01  0.1519E+02
   2.215  0.3179E+01  0.1521E+02
   2.220  0.3194E+01  0.1523E+02
   2.225  0.3210E+01  0.1524E+02
   2.230  0.3226E+01  0.1526E+02
   2.235  0.3243E+01  0.1527E+02
   2.240  0.3259E+01  0.1529E+02
   2.245  0.3276E+01  0.1531E+02
   2.250  0.3293E+01  0.1532E+02
   2.255  0.3311E+01  0.1534E+02
   2.260  0.3328E+01  0.1536E+02
   2.265  0.3346E+01  0.1537E+02
   2.270  0.3364E+01  0.1539E+02
   2.275  0.3382E+01  0.1541E+02
   2.280  0.3400E+01  0.1542E+02
   2.285  0.3418E+01  0.1544E+02
   2.290  0.3437E+01  0.1546E+02
   2.295  0.3455E+01  0.1548E+02
   2.300  0.3473E+01  0.1549E+02
   2.305  0.3492E+01  0.1551E+02
   2.310  0.3511E+01  0.1553E+02
   2.315  0.3529E+01  0.1555E+02
   2.320  0.3548E+01  0.1556E+02
   2.325  0.3566E+01  0.1558E+02
   2.330  0.3584E+01  0.1560E+02
   2.335  0.3603E+01  0.1562E+02
   2.340  0.3621E+01  0.1563E+02
   2.345  0.3639E+01  0.1565E+02
   2.350  0.3657E+01  0.1567E+02
   2.355  0.3674E+01  0.1569E+02
   2.360  0.3692E+01  0.1571E+02
   2.365  0.3709E+01  0.1573E+02
   2.370  0.3726E+01  0.1575E+02
   2.375  0.3743E+01  0.1576E+02
   2.380  0.3759E+01  0.1578E+02
   2.385  0.3775E+01  0.1580E+02
   2.390  0.3790E+01  0.1582E+02
   2.395  0.3806E+01  0.1584E+02
   2.400  0.3820E+01  0.1586E+02
   2.405  0.3835E+01  0.1588E+02
   2.410  0.3849E+01  0.1590E+02
   2.415  0.3862E+01  0.1592E+02
   2.420  0.3875E+01  0.1594E+02
   2.425  0.3888E+01  0.1596E+02
   2.430  0.3899E+01  0.1597E+02
   2.435  0.3911E+01  0.1599E+02
   2.440  0.3922E+01  0.1601E+02
   2.445  0.3932E+01  0.1603E+02
   2.450  0.3941E+01  0.1605E+02
   2.455  0.3950E+01  0.1607E+02
   2.460  0.3959E+01  0.1609E+02
   2.465  0.3966E+01  0.1611E+02
   2.470  0.3973E+01  0.1613E+02
   2.475  0.3980E+01  0.1615E+02
   2.480  0.3985E+01  0.1617E+02
   2.485  0.3990E+01  0.1619E+02
   2.490  0.3994E+01  0.1621E+02
   2.495  0.3998E+01  0.1623E+02
   2.500  0.4001E+01  0.1625E+02
   2.505  0.4003E+01  0.1627E+02
   2.510  0.4004E+01  0.1629E+02
   2.515  0.4005E+01  0.1631E+02
   2.520  0.4005E+01  0.1633E+02
   2.525  0.4004E+01  0.1635E+02
   2.530  0.4003E+01  0.1637E+02
   2.535  0.4001E+01  0.1639E+02
   2.540  0.3998E+01  0.1641E+02
   2.545  0.3994E+01  0.1643E+02
   2.550  0.3990E+01  0.1645E+02
   2.555  0.3985E+01  0.1647E+02
   2.560  0.3979E+01  0.1649E+02
   2.565  0.3973E+01  0.1651E+02
   2.570  0.3966E+01  0.1653E+02
   2.575  0.3958E+01  0.1655E+02
   2.580  0.3950E+01  0.1657E+02
   2.585  0.3941E+01  0.1659E+02
   2.590  0.3932E+01  0.1661E+02
   2.595  0.3922E+01  0.1663E+02
   2.600  0.3911E+01  0.1665E+02
   2.605  0.3900E+01  0.1667E+02
   2.610  0.3888E+01  0.1669E+02
   2.615  0.3876E+01  0.1671E+02
   2.620  0.3863E+01  0.1673E+02
   2.625  0.3849E+01  0.1675E+02
   2.630  0.3836E+01  0.1677E+02
   2.635  0.3821E+01  0.1679E+02
   2.640  0.3807E+01  0.1680E+02
   2.645  0.3791E+01  0.1682E+02
   2.650  0.3776E+01  0.1684E+02
   2.655  0.3760E+01  0.1686E+02
   2.660  0.3744E+01  0.1688E+02
   2.665  0.3727E+01  0.1690E+02
   2.670  0.3710E+01  0.1692E+02
   2.675  0.3693E+01  0.1694E+02
   2.680  0.3676E+01  0.1695E+02
   2.685  0.3658E+01  0.1697E+02
   2.690  0.3640E+01  0.1699E+02
   2.695  0.3622E+01  0.1701E+02
   2.700  0.3603E+01  0.1703E+02
   2.705  0.3585E+01  0.1704E+02
   2.710  0.3566E+01  0.1706E+02
   2.715  0.3547E+01  0.1708E+02
   2.720  0.3528E+01  0.1710E+02
   2.725  0.3509E+01  0.1711E+02
   2.730  0.3489E+01  0.1713E+02
   2.735  0.3470E+01  0.1715E+02
   2.740  0.3450E+01  0.1717E+02
   2.745  0.3431E+01  0.1718E+02
   2.750  0.3411E+01  0.1720E+02
   2.755  0.3392E+01  0.1722E+02
   2.760  0.3372E+01  0.1723E+02
   2.765  0.3352E+01  0.1725E+02
   2.770  0.3333E+01  0.1727E+02
   2.775  0.3313E+01  0.1728E+02
   2.780  0.3293E+01  0.1730E+02
   2.785  0.3274E+01  0.1732E+02
   2.790  0.3254E+01  0.1733E+02
   2.795  0.3234E+01  0.1735E+02
   2.800  0.3215E+01  0.1737E+02
   2.805  0.3195E+01  0.1738E+02
   2.810  0.3176E+01  0.1740E+02
   2.815  0.3156E+01  0.1741E+02
   2.820  0.3137E+01  0.1743E+02
   2.825  0.3118E+01  0.1745E+02
   2.830  0.3098E+01  0.1746E+02
   2.835  0.3079E+01  0.1748E+02
   2.840  0.3060E+01  0.1749E+02
   2.845  0.3041E+01  0.1751E+02
   2.850  0.3022E+01  0.1752E+02
   2.855  0.3003E+01  0.1754E+02
   2.860  0.2985E+01  0.1755E+02
   2.865  0.2966E+01  0.1757E+02
   2.870  0.2947E+01  0.1758E+02
   2.875  0.2929E+01  0.1760E+02
   2.880  0.2910E+01  0.1761E+02
   2.885  0.2892E+01  0.1762E+02
   2.890  0.2874E+01  0.1764E+02
   2.895  0.2855E+01  0.1765E+02
   2.900  0.2837E+01  0.1767E+02
   2.905  0.2819E+01  0.1768E+02
   2.910  0.2801E+01  0.1770E+02
   2.915  0.2784E+01  0.1771E+02
   2.920  0.2766E+01  0.1772E+02
   2.925  0.2748E+01  0.1774E+02
   2.930  0.2730E+01  0.1775E+02
   2.935  0.2713E+01  0.1776E+02
   2.940  0.2696E+01  0.1778E+02
   2.945  0.2678E+01  0.1779E+02
   2.950  0.2661E+01  0.1780E+02
   2.955  0.2644E+01  0.1782E+02
   2.960  0.2627E+01  0.1783E+02
   2.965  0.2610E+01  0.1784E+02
   2.970  0.2593E+01  0.1786E+02
   2.975  0.2576E+01  0.1787E+02
   2.980  0.2559E+01  0.1788E+02
   2.985  0.2543E+01  0.1790E+02
   2.990  0.2526E+01  0.1791E+02
   2.995  0.2510E+01  0.1792E+02
   3.000  0.2494E+01  0.1793E+02
   3.005  0.2478E+01  0.1795E+02
   3.010  0.2462E+01  0.1796E+02
   3.015  0.2446E+01  0.1797E+02
   3.020  0.2430E+01  0.1798E+02
   3.025  0.2414E+01  0.1799E+02
   3.030  0.2399E+01  0.1801E+02
   3.035  0.2383E+01  0.1802E+02
   3.040  0.2368E+01  0.1803E+02
   3.045  0.2353E+01  0.1804E+02
   3.050  0.2338E+01  0.1805E+02
   3.055  0.2323E+01  0.1806E+02
   3.060  0.2308E+01  0.1808E+02
   3.065  0.2293E+01  0.1809E+02
   3.070  0.2279E+01  0.1810E+02
   3.075  0.2264E+01  0.1811E+02
   3.080  0.2250E+01  0.1812E+02
   3.085  0.2236E+01  0.1813E+02
   3.090  0.2222E+01  0.1814E+02
   3.095  0.2208E+01  0.1816E+02
   3.100  0.2195E+01  0.1817E+02
   3.105  0.2181E+01  0.1818E+02
   3.110  0.2168E+01  0.1819E+02
   3.115  0.2155E+01  0.1820E+02
   3.120  0.2142E+01  0.1821E+02
   3.125  0.2129E+01  0.1822E+02
   3.130  0.2117E+01  0.1823E+02
   3.135  0.2104E+01  0.1824E+02
   3.140  0.2092E+01  0.1825E+02
   3.145  0.2080E+01  0.1826E+02
   3.150  0.2068E+01  0.1827E+02
   3.155  0.2056E+01  0.1828E+02
   3.160  0.2045E+01  0.1829E+02
   3.165  0.2034E+01  0.1830E+02
   3.170  0.2023E+01  0.1831E+02
   3.175  0.2012E+01  0.1832E+02
   3.180  0.2001E+01  0.1833E+02
   3.185  0.1990E+01  0.1834E+02
   3.190  0.1980E+01  0.1835E+02
   3.195  0.1970E+01  0.1836E+02
   3.200  0.1960E+01  0.1837E+02
   3.205  0.1950E+01  0.1838E+02
   3.210  0.1941E+01  0.1839E+02
   3.215  0.1931E+01  0.1840E+02
   3.220  0.1922E+01  0.1841E+02
   3.225  0.1913E+01  0.1842E+02
   3.230  0.1905E+01  0.1843E+02
   3.235  0.1896E+01  0.1844E+02
   3.240  0.1888E+01  0.1845E+02
   3.245  0.1880E+01  0.1846E+02
   3.250  0.1872E+01  0.1847E+02
   3.255  0.1864E+01  0.1848E+02
   3.260  0.1857E+01  0.1849E+02
   3.265  0.1849E+01  0.1850E+02
   3.270  0.1842E+01  0.1851E+02
   3.275  0.1835E+01  0.1851E+02
   3.280  0.1829E+01  0.1852E+02
   3.285  0.1822E+01  0.1853E+02
   3.290  0.1816E+01  0.1854E+02
   3.295  0.1810E+01  0.1855E+02
   3.300  0.1804E+01  0.1856E+02
   3.305  0.1799E+01  0.1857E+02
   3.310  0.1794E+01  0.1858E+02
   3.315  0.1788E+01  0.1859E+02
   3.320  0.1784E+01  0.1860E+02
   3.325  0.1779E+01  0.1860E+02
   3.330  0.1774E+01  0.1861E+02
   3.335  0.1770E+01  0.1862E+02
   3.340  0.1766E+01  0.1863E+02
   3.345  0.1762E+01  0.1864E+02
   3.350  0.1759E+01  0.1865E+02
   3.355  0.1756E+01  0.1866E+02
   3.360  0.1753E+01  0.1867E+02
   3.365  0.1750E+01  0.1868E+02
   3.370  0.1747E+01  0.1868E+02
   3.375  0.1745E+01  0.1869E+02
   3.380  0.1743E+01  0.1870E+02
   3.385  0.1741E+01  0.1871E+02
   3.390  0.1739E+01  0.1872E+02
   3.395  0.1738E+01  0.1873E+02
   3.400  0.1737E+01  0.1874E+02
   3.405  0.1736E+01  0.1874E+02
   3.410  0.1735E+01  0.1875E+02
   3.415  0.1735E+01  0.1876E+02
   3.420  0.1735E+01  0.1877E+02
   3.425  0.1735E+01  0.1878E+02
   3.430  0.1736E+01  0.1879E+02
   3.435  0.1736E+01  0.1880E+02
   3.440  0.1737E+01  0.1881E+02
   3.445  0.1738E+01  0.1881E+02
   3.450  0.1740E+01  0.1882E+02
   3.455  0.1742E+01  0.1883E+02
   3.460  0.1743E+01  0.1884E+02
   3.465  0.1746E+01  0.1885E+02
   3.470  0.1748E+01  0.1886E+02
   3.475  0.1751E+01  0.1887E+02
   3.480  0.1754E+01  0.1888E+02
   3.485  0.1757E+01  0.1888E+02
   3.490  0.1761E+01  0.1889E+02
   3.495  0.1764E+01  0.1890E+02
   3.500  0.1768E+01  0.1891E+02
   3.505  0.1773E+01  0.1892E+02
   3.510  0.1777E+01  0.1893E+02
   3.515  0.1782E+01  0.1894E+02
   3.520  0.1787E+01  0.1895E+02
   3.525  0.1792E+01  0.1896E+02
   3.530  0.1797E+01  0.1896E+02
   3.535  0.1803E+01  0.1897E+02
   3.540  0.1809E+01  0.1898E+02
   3.545  0.1815E+01  0.1899E+02
   3.550  0.1821E+01  0.1900E+02
   3.555  0.1828E+01  0.1901E+02
   3.560  0.1835E+01  0.1902E+02
   3.565  0.1842E+01  0.1903E+02
   3.570  0.1849E+01  0.1904E+02
   3.575  0.1856E+01  0.1905E+02
   3.580  0.1863E+01  0.1906E+02
   3.585  0.1871E+01  0.1907E+02
   3.590  0.1879E+01  0.1907E+02
   3.595  0.1887E+01  0.1908E+02
   3.600  0.1895E+01  0.1909E+02
   3.605  0.1903E+01  0.1910E+02
   3.610  0.1912E+01  0.1911E+02
   3.615  0.1920E+01  0.1912E+02
   3.620  0.1929E+01  0.1913E+02
   3.625  0.1937E+01  0.1914E+02
   3.630  0.1946E+01  0.1915E+02
   3.635  0.1955E+01  0.1916E+02
   3.640  0.1964E+01  0.1917E+02
   3.645  0.1973E+01  0.1918E+02
   3.650  0.1982E+01  0.1919E+02
   3.655  0.1992E+01  0.1920E+02
   3.660  0.2001E+01  0.1921E+02
   3.665  0.2010E+01  0.1922E+02
   3.670  0.2019E+01  0.1923E+02
   3.675  0.2029E+01  0.1924E+02
   3.680  0.2038E+01  0.1925E+02
   3.685  0.2047E+01  0.1926E+02
   3.690  0.2057E+01  0.1927E+02
   3.695  0.2066E+01  0.1928E+02
   3.700  0.2075E+01  0.1929E+02
   3.705  0.2084E+01  0.1930E+02
   3.710  0.2094E+01  0.1931E+02
   3.715  0.2103E+01  0.1932E+02
   3.720  0.2112E+01  0.1933E+02
   3.725  0.2121E+01  0.1934E+02
   3.730  0.2130E+01  0.1936E+02
   3.735  0.2139E+01  0.1937E+02
   3.740  0.2147E+01  0.1938E+02
   3.745  0.2156E+01  0.1939E+02
   3.750  0.2165E+01  0.1940E+02
   3.755  0.2173E+01  0.1941E+02
   3.760  0.2181E+01  0.1942E+02
   3.765  0.2190E+01  0.1943E+02
   3.770  0.2198E+01  0.1944E+02
   3.775  0.2205E+01  0.1945E+02
   3.780  0.2213E+01  0.1946E+02
   3.785  0.2221E+01  0.1948E+02
   3.790  0.2228E+01  0.1949E+02
   3.795  0.2235E+01  0.1950E+02
   3.800  0.2243E+01  0.1951E+02
   3.805  0.2250E+01  0.1952E+02
   3.810  0.2256E+01  0.1953E+02
   3.815  0.2263E+01  0.1954E+02
   3.820  0.2269E+01  0.1955E+02
   3.825  0.2275E+01  0.1957E+02
   3.830  0.2281E+01  0.1958E+02
   3.835  0.2287E+01  0.1959E+02
   3.840  0.2293E+01  0.1960E+02
   3.845  0.2298E+01  0.1961E+02
   3.850  0.2303E+01  0.1962E+02
   3.855  0.2308E+01  0.1963E+02
   3.860  0.2313E+01  0.1965E+02
   3.865  0.2318E+01  0.1966E+02
   3.870  0.2322E+01  0.1967E+02
   3.875  0.2326E+01  0.1968E+02
   3.880  0.2330E+01  0.1969E+02
   3.885  0.2334E+01  0.1970E+02
   3.890  0.2338E+01  0.1972E+02
   3.895  0.2341E+01  0.1973E+02
   3.900  0.2344E+01  0.1974E+02
   3.905  0.2347E+01  0.1975E+02
   3.910  0.2350E+01  0.1976E+02
   3.915  0.2352E+01  0.1977E+02
   3.920  0.2355E+01  0.1979E+02
   3.925  0.2357E+01  0.1980E+02
   3.930  0.2358E+01  0.1981E+02
   3.935  0.2360E+01  0.1982E+02
   3.940  0.2362E+01  0.1983E+02
   3.945  0.2363E+01  0.1985E+02
   3.950  0.2364E+01  0.1986E+02
   3.955  0.2365E+01  0.1987E+02
   3.960  0.2366E+01  0.1988E+02
   3.965  0.2366E+01  0.1989E+02
   3.970  0.2366E+01  0.1990E+02
   3.975  0.2366E+01  0.1992E+02
   3.980  0.2366E+01  0.1993E+02
   3.985  0.2366E+01  0.1994E+02
   3.990  0.2366E+01  0.1995E+02
   3.995  0.2365E+01  0.1996E+02
   4.000  0.2364E+01  0.1998E+02
   4.005  0.2363E+01  0.1999E+02
   4.010  0.2362E+01  0.2000E+02
   4.015  0.2360E+01  0.2001E+02
   4.020  0.2359E+01  0.2002E+02
   4.025  0.2357E+01  0.2003E+02
   4.030  0.2355E+01  0.2005E+02
   4.035  0.2353E+01  0.2006E+02
   4.040  0.2351E+01  0.2007E+02
   4.045  0.2349E+01  0.2008E+02
   4.050  0.2346E+01  0.2009E+02
   4.055  0.2343E+01  0.2010E+02
   4.060  0.2341E+01  0.2012E+02
   4.065  0.2338E+01  0.2013E+02
   4.070  0.2334E+01  0.2014E+02
   4.075  0.2331E+01  0.2015E+02
   4.080  0.2328E+01  0.2016E+02
   4.085  0.2324E+01  0.2017E+02
   4.090  0.2320E+01  0.2019E+02
   4.095  0.2316E+01  0.2020E+02
   4.100  0.2312E+01  0.2021E+02
   4.105  0.2308E+01  0.2022E+02
   4.110  0.2304E+01  0.2023E+02
   4.115  0.2300E+01  0.2024E+02
   4.120  0.2295E+01  0.2026E+02
   4.125  0.2290E+01  0.2027E+02
   4.130  0.2286E+01  0.2028E+02
   4.135  0.2281E+01  0.2029E+02
   4.140  0.2276E+01  0.2030E+02
   4.145  0.2271E+01  0.2031E+02
   4.150  0.2265E+01  0.2032E+02
   4.155  0.2260E+01  0.2034E+02
   4.160  0.2254E+01  0.2035E+02
   4.165  0.2249E+01  0.2036E+02
   4.170  0.2243E+01  0.2037E+02
   4.175  0.2237E+01  0.2038E+02
   4.180  0.2232E+01  0.2039E+02
   4.185  0.2226E+01  0.2040E+02
   4.190  0.2219E+01  0.2041E+02
   4.195  0.2213E+01  0.2042E+02
   4.200  0.2207E+01  0.2044E+02
   4.205  0.2201E+01  0.2045E+02
   4.210  0.2194E+01  0.2046E+02
   4.215  0.2188E+01  0.2047E+02
   4.220  0.2181E+01  0.2048E+02
   4.225  0.2175E+01  0.2049E+02
   4.230  0.2168E+01  0.2050E+02
   4.235  0.2161E+01  0.2051E+02
   4.240  0.2154E+01  0.2052E+02
   4.245  0.2147E+01  0.2053E+02
   4.250  0.2140E+01  0.2054E+02
   4.255  0.2133E+01  0.2055E+02
   4.260  0.2126E+01  0.2057E+02
   4.265  0.2119E+01  0.2058E+02
   4.270  0.2112E+01  0.2059E+02
   4.275  0.2104E+01  0.2060E+02
   4.280  0.2097E+01  0.2061E+02
   4.285  0.2090E+01  0.2062E+02
   4.290  0.2082E+01  0.2063E+02
   4.295  0.2075E+01  0.2064E+02
   4.300  0.2067E+01  0.2065E+02
   4.305  0.2060E+01  0.2066E+02
   4.310  0.2052E+01  0.2067E+02
   4.315  0.2044E+01  0.2068E+02
   4.320  0.2037E+01  0.2069E+02
   4.325  0.2029E+01  0.2070E+02
   4.330  0.2021E+01  0.2071E+02
   4.335  0.2014E+01  0.2072E+02
   4.340  0.2006E+01  0.2073E+02
   4.345  0.1998E+01  0.2074E+02
   4.350  0.1990E+01  0.2075E+02
   4.355  0.1982E+01  0.2076E+02
   4.360  0.1974E+01  0.2077E+02
   4.365  0.1966E+01  0.2078E+02
   4.370  0.1958E+01  0.2079E+02
   4.375  0.1950E+01  0.2080E+02
   4.380  0.1943E+01  0.2081E+02
   4.385  0.1935E+01  0.2082E+02
   4.390  0.1927E+01  0.2083E+02
   4.395  0.1919E+01  0.2084E+02
   4.400  0.1911E+01  0.2085E+02
   4.405  0.1903E+01  0.2086E+02
   4.410  0.1895E+01  0.2087E+02
   4.415  0.1887E+01  0.2088E+02
   4.420  0.1879E+01  0.2089E+02
   4.425  0.1871E+01  0.2089E+02
   4.430  0.1863E+01  0.2090E+02
   4.435  0.1855E+01  0.2091E+02
   4.440  0.1847E+01  0.2092E+02
   4.445  0.1839E+01  0.2093E+02
   4.450  0.1832E+01  0.2094E+02
   4.455  0.1824E+01  0.2095E+02
   4.460  0.1816E+01  0.2096E+02
   4.465  0.1808E+01  0.2097E+02
   4.470  0.1801E+01  0.2098E+02
   4.475  0.1793E+01  0.2099E+02
   4.480  0.1786E+01  0.2100E+02
   4.485  0.1778E+01  0.2100E+02
   4.490  0.1771E+01  0.2101E+02
   4.495  0.1764E+01  0.2102E+02
   4.500  0.1757E+01  0.2103E+02
   4.505  0.1750E+01  0.2104E+02
   4.510  0.1743E+01  0.2105E+02
   4.515  0.1736E+01  0.2106E+02
   4.520  0.1729E+01  0.2107E+02
   4.525  0.1722E+01  0.2107E+02
   4.530  0.1716E+01  0.2108E+02
   4.535  0.1710E+01  0.2109E+02
   4.540  0.1703E+01  0.2110E+02
   4.545  0.1697E+01  0.2111E+02
   4.550  0.1692E+01  0.2112E+02
   4.555  0.1686E+01  0.2112E+02
   4.560  0.1680E+01  0.2113E+02
   4.565  0.1675E+01  0.2114E+02
   4.570  0.1670E+01  0.2115E+02
   4.575  0.1665E+01  0.2116E+02
   4.580  0.1660E+01  0.2117E+02
   4.585  0.1656E+01  0.2117E+02
   4.590  0.1651E+01  0.2118E+02
   4.595  0.1647E+01  0.2119E+02
   4.600  0.1643E+01  0.2120E+02
   4.605  0.1640E+01  0.2121E+02
   4.610  0.1636E+01  0.2122E+02
   4.615  0.1633E+01  0.2122E+02
   4.620  0.1630E+01  0.2123E+02
   4.625  0.1627E+01  0.2124E+02
   4.630  0.1625E+01  0.2125E+02
   4.635  0.1623E+01  0.2126E+02
   4.640  0.1621E+01  0.2126E+02
   4.645  0.1620E+01  0.2127E+02
   4.650  0.1618E+01  0.2128E+02
   4.655  0.1617E+01  0.2129E+02
   4.660  0.1616E+01  0.2130E+02
   4.665  0.1616E+01  0.2131E+02
   4.670  0.1616E+01  0.2131E+02
   4.675  0.1616E+01  0.2132E+02
   4.680  0.1616E+01  0.2133E+02
   4.685  0.1617E+01  0.2134E+02
   4.690  0.1618E+01  0.2135E+02
   4.695  0.1619E+01  0.2135E+02
   4.700  0.1621E+01  0.2136E+02
   4.705  0.1622E+01  0.2137E+02
   4.710  0.1624E+01  0.2138E+02
   4.715  0.1627E+01  0.2139E+02
   4.720  0.1629E+01  0.2139E+02
   4.725  0.1632E+01  0.2140E+02
   4.730  0.1635E+01  0.2141E+02
   4.735  0.1639E+01  0.2142E+02
   4.740  0.1642E+01  0.2143E+02
   4.745  0.1646E+01  0.2144E+02
   4.750  0.1650E+01  0.2144E+02
   4.755  0.1654E+01  0.2145E+02
   4.760  0.1659E+01  0.2146E+02
   4.765  0.1663E+01  0.2147E+02
   4.770  0.1668E+01  0.2148E+02
   4.775  0.1673E+01  0.2149E+02
   4.780  0.1678E+01  0.2149E+02
   4.785  0.1684E+01  0.2150E+02
   4.790  0.1689E+01  0.2151E+02
   4.795  0.1695E+01  0.2152E+02
   4.800  0.1700E+01  0.2153E+02
   4.805  0.1706E+01  0.2154E+02
   4.810  0.1712E+01  0.2154E+02
   4.815  0.1718E+01  0.2155E+02
   4.820  0.1724E+01  0.2156E+02
   4.825  0.1730E+01  0.2157E+02
   4.830  0.1737E+01  0.2158E+02
   4.835  0.1743E+01  0.2159E+02
   4.840  0.1749E+01  0.2160E+02
   4.845  0.1755E+01  0.2161E+02
   4.850  0.1761E+01  0.2161E+02
   4.855  0.1768E+01  0.2162E+02
   4.860  0.1774E+01  0.2163E+02
   4.865  0.1780E+01  0.2164E+02
   4.870  0.1786E+01  0.2165E+02
   4.875  0.1792E+01  0.2166E+02
   4.880  0.1798E+01  0.2167E+02
   4.885  0.1804E+01  0.2168E+02
   4.890  0.1810E+01  0.2169E+02
   4.895  0.1815E+01  0.2169E+02
   4.900  0.1821E+01  0.2170E+02
   4.905  0.1826E+01  0.2171E+02
   4.910  0.1831E+01  0.2172E+02
   4.915  0.1836E+01  0.2173E+02
   4.920  0.1841E+01  0.2174E+02
   4.925  0.1845E+01  0.2175E+02
   4.930  0.1850E+01  0.2176E+02
   4.935  0.1854E+01  0.2177E+02
   4.940  0.1858E+01  0.2178E+02
   4.945  0.1862E+01  0.2179E+02
   4.950  0.1866E+01  0.2180E+02
   4.955  0.1869E+01  0.2181E+02
   4.960  0.1872E+01  0.2181E+02
   4.965  0.1875E+01  0.2182E+02
   4.970  0.1877E+01  0.2183E+02
   4.975  0.1880E+01  0.2184E+02
   4.980  0.1882E+01  0.2185E+02
   4.985  0.1884E+01  0.2186E+02
   4.990  0.1885E+01  0.2187E+02
   4.995  0.1887E+01  0.2188E+02
   5.000  0.1888E+01  0.2189E+02
   5.005  0.1889E+01  0.2190E+02
   5.010  0.1889E+01  0.2191E+02
   5.015  0.1889E+01  0.2192E+02
   5.020  0.1889E+01  0.2193E+02
   5.025  0.1889E+01  0.2194E+02
   5.030  0.1889E+01  0.2195E+02
   5.035  0.1888E+01  0.2196E+02
   5.040  0.1887E+01  0.2197E+02
   5.045  0.1886E+01  0.2198E+02
   5.050  0.1884E+01  0.2198E+02
   5.055  0.1882E+01  0.2199E+02
   5.060  0.1880E+01  0.2200E+02
   5.065  0.1878E+01  0.2201E+02
   5.070  0.1876E+01  0.2202E+02
   5.075  0.1873E+01  0.2203E+02
   5.080  0.1870E+01  0.2204E+02
   5.085  0.1867E+01  0.2205E+02
   5.090  0.1864E+01  0.2206E+02
   5.095  0.1860E+01  0.2207E+02
   5.100  0.1856E+01  0.2208E+02
   5.105  0.1853E+01  0.2209E+02
   5.110  0.1849E+01  0.2210E+02
   5.115  0.1844E+01  0.2211E+02
   5.120  0.1840E+01  0.2211E+02
   5.125  0.1836E+01  0.2212E+02
   5.130  0.1831E+01  0.2213E+02
   5.135  0.1826E+01  0.2214E+02
   5.140  0.1821E+01  0.2215E+02
   5.145  0.1816E+01  0.2216E+02
   5.150  0.1811E+01  0.2217E+02
   5.155  0.1806E+01  0.2218E+02
   5.160  0.1801E+01  0.2219E+02
   5.165  0.1796E+01  0.2220E+02
   5.170  0.1790E+01  0.2221E+02
   5.175  0.1785E+01  0.2221E+02
   5.180  0.1779E+01  0.2222E+02
   5.185  0.1774E+01  0.2223E+02
   5.190  0.1769E+01  0.2224E+02
   5.195  0.1763E+01  0.2225E+02
   5.200  0.1758E+01  0.2226E+02
   5.205  0.1752E+01  0.2227E+02
   5.210  0.1747E+01  0.2228E+02
   5.215  0.1741E+01  0.2228E+02
   5.220  0.1736E+01  0.2229E+02
   5.225  0.1731E+01  0.2230E+02
   5.230  0.1725E+01  0.2231E+02
   5.235  0.1720E+01  0.2232E+02
   5.240  0.1715E+01  0.2233E+02
   5.245  0.1710E+01  0.2234E+02
   5.250  0.1705E+01  0.2235E+02
   5.255  0.1700E+01  0.2235E+02
   5.260  0.1695E+01  0.2236E+02
   5.265  0.1690E+01  0.2237E+02
   5.270  0.1686E+01  0.2238E+02
   5.275  0.1681E+01  0.2239E+02
   5.280  0.1677E+01  0.2240E+02
   5.285  0.1673E+01  0.2240E+02
   5.290  0.1669E+01  0.2241E+02
   5.295  0.1665E+01  0.2242E+02
   5.300  0.1661E+01  0.2243E+02
   5.305  0.1658E+01  0.2244E+02
   5.310  0.1654E+01  0.2245E+02
   5.315  0.1651E+01  0.2245E+02
   5.320  0.1648E+01  0.2246E+02
   5.325  0.1645E+01  0.2247E+02
   5.330  0.1642E+01  0.2248E+02
   5.335  0.1640E+01  0.2249E+02
   5.340  0.1637E+01  0.2250E+02
   5.345  0.1635E+01  0.2250E+02
   5.350  0.1633E+01  0.2251E+02
   5.355  0.1631E+01  0.2252E+02
   5.360  0.1630E+01  0.2253E+02
   5.365  0.1628E+01  0.2254E+02
   5.370  0.1627E+01  0.2254E+02
   5.375  0.1626E+01  0.2255E+02
   5.380  0.1625E+01  0.2256E+02
   5.385  0.1624E+01  0.2257E+02
   5.390  0.1623E+01  0.2258E+02
   5.395  0.1623E+01  0.2258E+02
   5.400  0.1623E+01  0.2259E+02
   5.405  0.1623E+01  0.2260E+02
   5.410  0.1623E+01  0.2261E+02
   5.415  0.1623E+01  0.2262E+02
   5.420  0.1624E+01  0.2263E+02
   5.425  0.1624E+01  0.2263E+02
   5.430  0.1625E+01  0.2264E+02
   5.435  0.1626E+01  0.2265E+02
   5.440  0.1627E+01  0.2266E+02
   5.445  0.1628E+01  0.2267E+02
   5.450  0.1630E+01  0.2267E+02
   5.455  0.1631E+01  0.2268E+02
   5.460  0.1633E+01  0.2269E+02
   5.465  0.1635E+01  0.2270E+02
   5.470  0.1637E+01  0.2271E+02
   5.475  0.1639E+01  0.2271E+02
   5.480  0.1641E+01  0.2272E+02
   5.485  0.1643E+01  0.2273E+02
   5.490  0.1645E+01  0.2274E+02
   5.495  0.1648E+01  0.2275E+02
   5.500  0.1650E+01  0.2276E+02
   5.505  0.1653E+01  0.2276E+02
   5.510  0.1656E+01  0.2277E+02
   5.515  0.1658E+01  0.2278E+02
   5.520  0.1661E+01  0.2279E+02
   5.525  0.1664E+01  0.2280E+02
   5.530  0.1667E+01  0.2281E+02
   5.535  0.1670E+01  0.2281E+02
   5.540  0.1673E+01  0.2282E+02
   5.545  0.1676E+01  0.2283E+02
   5.550  0.1679E+01  0.2284E+02
   5.555  0.1682E+01  0.2285E+02
   5.560  0.1685E+01  0.2286E+02
   5.565  0.1688E+01  0.2286E+02
   5.570  0.1691E+01  0.2287E+02
   5.575  0.1694E+01  0.2288E+02
   5.580  0.1697E+01  0.2289E+02
   5.585  0.1700E+01  0.2290E+02
   5.590  0.1703E+01  0.2291E+02
   5.595  0.1705E+01  0.2292E+02
   5.600  0.1708E+01  0.2292E+02
   5.605  0.1711E+01  0.2293E+02
   5.610  0.1714E+01  0.2294E+02
   5.615  0.1717E+01  0.2295E+02
   5.620  0.1719E+01  0.2296E+02
   5.625  0.1722E+01  0.2297E+02
   5.630  0.1724E+01  0.2298E+02
   5.635  0.1727E+01  0.2298E+02
   5.640  0.1729E+01  0.2299E+02
   5.645  0.1731E+01  0.2300E+02
   5.650  0.1733E+01  0.2301E+02
   5.655  0.1735E+01  0.2302E+02
   5.660  0.1737E+01  0.2303E+02
   5.665  0.1739E+01  0.2304E+02
   5.670  0.1741E+01  0.2304E+02
   5.675  0.1743E+01  0.2305E+02
   5.680  0.1744E+01  0.2306E+02
   5.685  0.1746E+01  0.2307E+02
   5.690  0.1747E+01  0.2308E+02
   5.695  0.1749E+01  0.2309E+02
   5.700  0.1750E+01  0.2310E+02
   5.705  0.1751E+01  0.2311E+02
   5.710  0.1752E+01  0.2311E+02
   5.715  0.1752E+01  0.2312E+02
   5.720  0.1753E+01  0.2313E+02
   5.725  0.1754E+01  0.2314E+02
   5.730  0.1754E+01  0.2315E+02
   5.735  0.1754E+01  0.2316E+02
   5.740  0.1755E+01  0.2317E+02
   5.745  0.1755E+01  0.2318E+02
   5.750  0.1755E+01  0.2318E+02
   5.755  0.1755E+01  0.2319E+02
   5.760  0.1754E+01  0.2320E+02
   5.765  0.1754E+01  0.2321E+02
   5.770  0.1753E+01  0.2322E+02
   5.775  0.1753E+01  0.2323E+02
   5.780  0.1752E+01  0.2324E+02
   5.785  0.1751E+01  0.2325E+02
   5.790  0.1750E+01  0.2326E+02
   5.795  0.1749E+01  0.2326E+02
   5.800  0.1748E+01  0.2327E+02
   5.805  0.1747E+01  0.2328E+02
   5.810  0.1746E+01  0.2329E+02
   5.815  0.1744E+01  0.2330E+02
   5.820  0.1743E+01  0.2331E+02
   5.825  0.1741E+01  0.2332E+02
   5.830  0.1739E+01  0.2332E+02
   5.835  0.1737E+01  0.2333E+02
   5.840  0.1735E+01  0.2334E+02
   5.845  0.1733E+01  0.2335E+02
   5.850  0.1731E+01  0.2336E+02
   5.855  0.1729E+01  0.2337E+02
   5.860  0.1727E+01  0.2338E+02
   5.865  0.1725E+01  0.2339E+02
   5.870  0.1722E+01  0.2339E+02
   5.875  0.1720E+01  0.2340E+02
   5.880  0.1717E+01  0.2341E+02
   5.885  0.1715E+01  0.2342E+02
   5.890  0.1712E+01  0.2343E+02
   5.895  0.1709E+01  0.2344E+02
   5.900  0.1706E+01  0.2345E+02
   5.905  0.1703E+01  0.2345E+02
   5.910  0.1701E+01  0.2346E+02
   5.915  0.1698E+01  0.2347E+02
   5.920  0.1694E+01  0.2348E+02
   5.925  0.1691E+01  0.2349E+02
   5.930  0.1688E+01  0.2350E+02
   5.935  0.1685E+01  0.2350E+02
   5.940  0.1682E+01  0.2351E+02
   5.945  0.1679E+01  0.2352E+02
   5.950  0.1675E+01  0.2353E+02
   5.955  0.1672E+01  0.2354E+02
   5.960  0.1669E+01  0.2355E+02
   5.965  0.1665E+01  0.2355E+02
   5.970  0.1662E+01  0.2356E+02
   5.975  0.1658E+01  0.2357E+02
   5.980  0.1655E+01  0.2358E+02
   5.985  0.1651E+01  0.2359E+02
   5.990  0.1648E+01  0.2360E+02
   5.995  0.1644E+01  0.2360E+02
   6.000  0.1640E+01  0.2361E+02
   6.005  0.1637E+01  0.2362E+02
   6.010  0.1633E+01  0.2363E+02
   6.015  0.1630E+01  0.2364E+02
   6.020  0.1626E+01  0.2365E+02
   6.025  0.1622E+01  0.2365E+02
   6.030  0.1619E+01  0.2366E+02
   6.035  0.1615E+01  0.2367E+02
   6.040  0.1611E+01  0.2368E+02
   6.045  0.1608E+01  0.2369E+02
   6.050  0.1604E+01  0.2369E+02
   6.055  0.1600E+01  0.2370E+02
   6.060  0.1596E+01  0.2371E+02
   6.065  0.1593E+01  0.2372E+02
   6.070  0.1589E+01  0.2373E+02
   6.075  0.1585E+01  0.2373E+02
   6.080  0.1582E+01  0.2374E+02
   6.085  0.1578E+01  0.2375E+02
   6.090  0.1575E+01  0.2376E+02
   6.095  0.1571E+01  0.2377E+02
   6.100  0.1567E+01  0.2377E+02
   6.105  0.1564E+01  0.2378E+02
   6.110  0.1560E+01  0.2379E+02
   6.115  0.1557E+01  0.2380E+02
   6.120  0.1553E+01  0.2380E+02
   6.125  0.1550E+01  0.2381E+02
   6.130  0.1547E+01  0.2382E+02
   6.135  0.1543E+01  0.2383E+02
   6.140  0.1540E+01  0.2384E+02
   6.145  0.1537E+01  0.2384E+02
   6.150  0.1533E+01  0.2385E+02
   6.155  0.1530E+01  0.2386E+02
   6.160  0.1527E+01  0.2387E+02
   6.165  0.1524E+01  0.2387E+02
   6.170  0.1521E+01  0.2388E+02
   6.175  0.1518E+01  0.2389E+02
   6.180  0.1515E+01  0.2390E+02
   6.185  0.1512E+01  0.2390E+02
   6.190  0.1509E+01  0.2391E+02
   6.195  0.1506E+01  0.2392E+02
   6.200  0.1504E+01  0.2393E+02
   6.205  0.1501E+01  0.2393E+02
   6.210  0.1499E+01  0.2394E+02
   6.215  0.1496E+01  0.2395E+02
   6.220  0.1494E+01  0.2396E+02
   6.225  0.1492E+01  0.2396E+02
   6.230  0.1489E+01  0.2397E+02
   6.235  0.1487E+01  0.2398E+02
   6.240  0.1485E+01  0.2399E+02
   6.245  0.1483E+01  0.2399E+02
   6.250  0.1481E+01  0.2400E+02
   6.255  0.1479E+01  0.2401E+02
   6.260  0.1478E+01  0.2402E+02
   6.265  0.1476E+01  0.2402E+02
   6.270  0.1475E+01  0.2403E+02
   6.275  0.1473E+01  0.2404E+02
   6.280  0.1472E+01  0.2405E+02
   6.285  0.1471E+01  0.2405E+02
   6.290  0.1470E+01  0.2406E+02
   6.295  0.1469E+01  0.2407E+02
   6.300  0.1468E+01  0.2407E+02
   6.305  0.1467E+01  0.2408E+02
   6.310  0.1466E+01  0.2409E+02
   6.315  0.1466E+01  0.2410E+02
   6.320  0.1465E+01  0.2410E+02
   6.325  0.1465E+01  0.2411E+02
   6.330  0.1465E+01  0.2412E+02
   6.335  0.1464E+01  0.2413E+02
   6.340  0.1464E+01  0.2413E+02
   6.345  0.1465E+01  0.2414E+02
   6.350  0.1465E+01  0.2415E+02
   6.355  0.1465E+01  0.2415E+02
   6.360  0.1466E+01  0.2416E+02
   6.365  0.1466E+01  0.2417E+02
   6.370  0.1467E+01  0.2418E+02
   6.375  0.1468E+01  0.2418E+02
   6.380  0.1469E+01  0.2419E+02
   6.385  0.1470E+01  0.2420E+02
   6.390  0.1471E+01  0.2421E+02
   6.395  0.1472E+01  0.2421E+02
   6.400  0.1474E+01  0.2422E+02
   6.405  0.1475E+01  0.2423E+02
   6.410  0.1477E+01  0.2424E+02
   6.415  0.1479E+01  0.2424E+02
   6.420  0.1481E+01  0.2425E+02
   6.425  0.1483E+01  0.2426E+02
   6.430  0.1485E+01  0.2427E+02
   6.435  0.1487E+01  0.2427E+02
   6.440  0.1490E+01  0.2428E+02
   6.445  0.1492E+01  0.2429E+02
   6.450  0.1495E+01  0.2430E+02
   6.455  0.1498E+01  0.2430E+02
   6.460  0.1501E+01  0.2431E+02
   6.465  0.1504E+01  0.2432E+02
   6.470  0.1507E+01  0.2433E+02
   6.475  0.1511E+01  0.2433E+02
   6.480  0.1514E+01  0.2434E+02
   6.485  0.1518E+01  0.2435E+02
   6.490  0.1522E+01  0.2436E+02
   6.495  0.1526E+01  0.2436E+02
   6.500  0.1530E+01  0.2437E+02
   6.505  0.1534E+01  0.2438E+02
   6.510  0.1538E+01  0.2439E+02
   6.515  0.1543E+01  0.2439E+02
   6.520  0.1547E+01  0.2440E+02
   6.525  0.1552E+01  0.2441E+02
   6.530  0.1557E+01  0.2442E+02
   6.535  0.1562E+01  0.2443E+02
   6.540  0.1567E+01  0.2443E+02
   6.545  0.1572E+01  0.2444E+02
   6.550  0.1577E+01  0.2445E+02
   6.555  0.1583E+01  0.2446E+02
   6.560  0.1588E+01  0.2446E+02
   6.565  0.1594E+01  0.2447E+02
   6.570  0.1600E+01  0.2448E+02
   6.575  0.1606E+01  0.2449E+02
   6.580  0.1612E+01  0.2450E+02
   6.585  0.1618E+01  0.2450E+02
   6.590  0.1624E+01  0.2451E+02
   6.595  0.1630E+01  0.2452E+02
   6.600  0.1637E+01  0.2453E+02
   6.605  0.1643E+01  0.2454E+02
   6.610  0.1650E+01  0.2455E+02
   6.615  0.1657E+01  0.2455E+02
   6.620  0.1664E+01  0.2456E+02
   6.625  0.1671E+01  0.2457E+02
   6.630  0.1678E+01  0.2458E+02
   6.635  0.1685E+01  0.2459E+02
   6.640  0.1693E+01  0.2460E+02
   6.645  0.1700E+01  0.2460E+02
   6.650  0.1707E+01  0.2461E+02
   6.655  0.1715E+01  0.2462E+02
   6.660  0.1723E+01  0.2463E+02
   6.665  0.1730E+01  0.2464E+02
   6.670  0.1738E+01  0.2465E+02
   6.675  0.1746E+01  0.2466E+02
   6.680  0.1754E+01  0.2466E+02
   6.685  0.1762E+01  0.2467E+02
   6.690  0.1770E+01  0.2468E+02
   6.695  0.1779E+01  0.2469E+02
   6.700  0.1787E+01  0.2470E+02
   6.705  0.1795E+01  0.2471E+02
   6.710  0.1804E+01  0.2472E+02
   6.715  0.1812E+01  0.2473E+02
   6.720  0.1821E+01  0.2474E+02
   6.725  0.1829E+01  0.2475E+02
   6.730  0.1838E+01  0.2475E+02
   6.735  0.1846E+01  0.2476E+02
   6.740  0.1855E+01  0.2477E+02
   6.745  0.1864E+01  0.2478E+02
   6.750  0.1873E+01  0.2479E+02
   6.755  0.1882E+01  0.2480E+02
   6.760  0.1890E+01  0.2481E+02
   6.765  0.1899E+01  0.2482E+02
   6.770  0.1908E+01  0.2483E+02
   6.775  0.1917E+01  0.2484E+02
   6.780  0.1926E+01  0.2485E+02
   6.785  0.1935E+01  0.2486E+02
   6.790  0.1945E+01  0.2487E+02
   6.795  0.1954E+01  0.2488E+02
   6.800  0.1963E+01  0.2489E+02
   6.805  0.1972E+01  0.2490E+02
   6.810  0.1981E+01  0.2491E+02
   6.815  0.1990E+01  0.2492E+02
   6.820  0.2000E+01  0.2493E+02
   6.825  0.2009E+01  0.2494E+02
   6.830  0.2018E+01  0.2495E+02
   6.835  0.2027E+01  0.2496E+02
   6.840  0.2037E+01  0.2497E+02
   6.845  0.2046E+01  0.2498E+02
   6.850  0.2055E+01  0.2499E+02
   6.855  0.2064E+01  0.2500E+02
   6.860  0.2074E+01  0.2501E+02
   6.865  0.2083E+01  0.2502E+02
   6.870  0.2092E+01  0.2503E+02
   6.875  0.2102E+01  0.2504E+02
   6.880  0.2111E+01  0.2505E+02
   6.885  0.2120E+01  0.2506E+02
   6.890  0.2130E+01  0.2507E+02
   6.895  0.2139E+01  0.2508E+02
   6.900  0.2148E+01  0.2509E+02
   6.905  0.2158E+01  0.2511E+02
   6.910  0.2167E+01  0.2512E+02
   6.915  0.2176E+01  0.2513E+02
   6.920  0.2186E+01  0.2514E+02
   6.925  0.2195E+01  0.2515E+02
   6.930  0.2204E+01  0.2516E+02
   6.935  0.2213E+01  0.2517E+02
   6.940  0.2223E+01  0.2518E+02
   6.945  0.2232E+01  0.2519E+02
   6.950  0.2241E+01  0.2520E+02
   6.955  0.2250E+01  0.2522E+02
   6.960  0.2259E+01  0.2523E+02
   6.965  0.2269E+01  0.2524E+02
   6.970  0.2278E+01  0.2525E+02
   6.975  0.2287E+01  0.2526E+02
   6.980  0.2296E+01  0.2527E+02
   6.985  0.2305E+01  0.2528E+02
   6.990  0.2314E+01  0.2530E+02
   6.995  0.2323E+01  0.2531E+02
   7.000  0.2332E+01  0.2532E+02
   7.005  0.2341E+01  0.2533E+02
   7.010  0.2350E+01  0.2534E+02
   7.015  0.2359E+01  0.2535E+02
   7.020  0.2368E+01  0.2537E+02
   7.025  0.2376E+01  0.2538E+02
   7.030  0.2385E+01  0.2539E+02
   7.035  0.2394E+01  0.2540E+02
   7.040  0.2402E+01  0.2541E+02
   7.045  0.2411E+01  0.2543E+02
   7.050  0.2420E+01  0.2544E+02
   7.055  0.2428E+01  0.2545E+02
   7.060  0.2437E+01  0.2546E+02
   7.065  0.2445E+01  0.2547E+02
   7.070  0.2453E+01  0.2549E+02
   7.075  0.2462E+01  0.2550E+02
   7.080  0.2470E+01  0.2551E+02
   7.085  0.2478E+01  0.2552E+02
   7.090  0.2486E+01  0.2554E+02
   7.095  0.2494E+01  0.2555E+02
   7.100  0.2502E+01  0.2556E+02
   7.105  0.2510E+01  0.2557E+02
   7.110  0.2518E+01  0.2559E+02
   7.115  0.2526E+01  0.2560E+02
   7.120  0.2533E+01  0.2561E+02
   7.125  0.2541E+01  0.2562E+02
   7.130  0.2549E+01  0.2564E+02
   7.135  0.2556E+01  0.2565E+02
   7.140  0.2563E+01  0.2566E+02
   7.145  0.2571E+01  0.2568E+02
   7.150  0.2578E+01  0.2569E+02
   7.155  0.2585E+01  0.2570E+02
   7.160  0.2592E+01  0.2571E+02
   7.165  0.2599E+01  0.2573E+02
   7.170  0.2606E+01  0.2574E+02
   7.175  0.2613E+01  0.2575E+02
   7.180  0.2620E+01  0.2577E+02
   7.185  0.2626E+01  0.2578E+02
   7.190  0.2633E+01  0.2579E+02
   7.195  0.2639E+01  0.2581E+02
   7.200  0.2646E+01  0.2582E+02
   7.205  0.2652E+01  0.2583E+02
   7.210  0.2658E+01  0.2585E+02
   7.215  0.2664E+01  0.2586E+02
   7.220  0.2670E+01  0.2587E+02
   7.225  0.2676E+01  0.2589E+02
   7.230  0.2682E+01  0.2590E+02
   7.235  0.2688E+01  0.2591E+02
   7.240  0.2693E+01  0.2593E+02
   7.245  0.2699E+01  0.2594E+02
   7.250  0.2704E+01  0.2595E+02
   7.255  0.2710E+01  0.2597E+02
   7.260  0.2715E+01  0.2598E+02
   7.265  0.2720E+01  0.2599E+02
   7.270  0.2726E+01  0.2601E+02
   7.275  0.2731E+01  0.2602E+02
   7.280  0.2736E+01  0.2603E+02
   7.285  0.2741E+01  0.2605E+02
   7.290  0.2746E+01  0.2606E+02
   7.295  0.2750E+01  0.2608E+02
   7.300  0.2755E+01  0.2609E+02
   7.305  0.2760E+01  0.2610E+02
   7.310  0.2764E+01  0.2612E+02
   7.315  0.2769E+01  0.2613E+02
   7.320  0.2773E+01  0.2614E+02
   7.325  0.2778E+01  0.2616E+02
   7.330  0.2782E+01  0.2617E+02
   7.335  0.2787E+01  0.2619E+02
   7.340  0.2791E+01  0.2620E+02
   7.345  0.2795E+01  0.2621E+02
   7.350  0.2799E+01  0.2623E+02
   7.355  0.2803E+01  0.2624E+02
   7.360  0.2808E+01  0.2626E+02
   7.365  0.2812E+01  0.2627E+02
   7.370  0.2816E+01  0.2628E+02
   7.375  0.2820E+01  0.2630E+02
   7.380  0.2824E+01  0.2631E+02
   7.385  0.2828E+01  0.2633E+02
   7.390  0.2832E+01  0.2634E+02
   7.395  0.2835E+01  0.2636E+02
   7.400  0.2839E+01  0.2637E+02
   7.405  0.2843E+01  0.2638E+02
   7.410  0.2847E+01  0.2640E+02
   7.415  0.2851E+01  0.2641E+02
   7.420  0.2855E+01  0.2643E+02
   7.425  0.2859E+01  0.2644E+02
   7.430  0.2863E+01  0.2646E+02
   7.435  0.2867E+01  0.2647E+02
   7.440  0.2871E+01  0.2648E+02
   7.445  0.2875E+01  0.2650E+02
   7.450  0.2879E+01  0.2651E+02
   7.455  0.2883E+01  0.2653E+02
   7.460  0.2887E+01  0.2654E+02
   7.465  0.2891E+01  0.2656E+02
   7.470  0.2895E+01  0.2657E+02
   7.475  0.2899E+01  0.2659E+02
   7.480  0.2904E+01  0.2660E+02
   7.485  0.2908E+01  0.2661E+02
   7.490  0.2912E+01  0.2663E+02
   7.495  0.2916E+01  0.2664E+02
   7.500  0.2921E+01  0.2666E+02
   7.505  0.2925E+01  0.2667E+02
   7.510  0.2930E+01  0.2669E+02
   7.515  0.2934E+01  0.2670E+02
   7.520  0.2939E+01  0.2672E+02
   7.525  0.2943E+01  0.2673E+02
   7.530  0.2948E+01  0.2675E+02
   7.535  0.2953E+01  0.2676E+02
   7.540  0.2958E+01  0.2678E+02
   7.545  0.2962E+01  0.2679E+02
   7.550  0.2967E+01  0.2681E+02
   7.555  0.2972E+01  0.2682E+02
   7.560  0.2977E+01  0.2683E+02
   7.565  0.2982E+01  0.2685E+02
   7.570  0.2987E+01  0.2686E+02
   7.575  0.2992E+01  0.2688E+02
   7.580  0.2997E+01  0.2689E+02
   7.585  0.3003E+01  0.2691E+02
   7.590  0.3008E+01  0.2692E+02
   7.595  0.3013E+01  0.2694E+02
   7.600  0.3018E+01  0.2695E+02
   7.605  0.3023E+01  0.2697E+02
   7.610  0.3029E+01  0.2699E+02
   7.615  0.3034E+01  0.2700E+02
   7.620  0.3039E+01  0.2702E+02
   7.625  0.3045E+01  0.2703E+02
   7.630  0.3050E+01  0.2705E+02
   7.635  0.3055E+01  0.2706E+02
   7.640  0.3060E+01  0.2708E+02
   7.645  0.3066E+01  0.2709E+02
   7.650  0.3071E+01  0.2711E+02
   7.655  0.3076E+01  0.2712E+02
   7.660  0.3081E+01  0.2714E+02
   7.665  0.3086E+01  0.2715E+02
   7.670  0.3091E+01  0.2717E+02
   7.675  0.3096E+01  0.2718E+02
   7.680  0.3101E+01  0.2720E+02
   7.685  0.3106E+01  0.2722E+02
   7.690  0.3111E+01  0.2723E+02
   7.695  0.3115E+01  0.2725E+02
   7.700  0.3120E+01  0.2726E+02
   7.705  0.3124E+01  0.2728E+02
   7.710  0.3129E+01  0.2729E+02
   7.715  0.3133E+01  0.2731E+02
   7.720  0.3137E+01  0.2732E+02
   7.725  0.3141E+01  0.2734E+02
   7.730  0.3145E+01  0.2736E+02
   7.735  0.3149E+01  0.2737E+02
   7.740  0.3153E+01  0.2739E+02
   7.745  0.3156E+01  0.2740E+02
   7.750  0.3160E+01  0.2742E+02
   7.755  0.3163E+01  0.2744E+02
   7.760  0.3166E+01  0.2745E+02
   7.765  0.3169E+01  0.2747E+02
   7.770  0.3172E+01  0.2748E+02
   7.775  0.3175E+01  0.2750E+02
   7.780  0.3177E+01  0.2751E+02
   7.785  0.3179E+01  0.2753E+02
   7.790  0.3182E+01  0.2755E+02
   7.795  0.3184E+01  0.2756E+02
   7.800  0.3186E+01  0.2758E+02
   7.805  0.3187E+01  0.2759E+02
   7.810  0.3189E+01  0.2761E+02
   7.815  0.3190E+01  0.2763E+02
   7.820  0.3192E+01  0.2764E+02
   7.825  0.3193E+01  0.2766E+02
   7.830  0.3194E+01  0.2767E+02
   7.835  0.3194E+01  0.2769E+02
   7.840  0.3195E+01  0.2771E+02
   7.845  0.3196E+01  0.2772E+02
   7.850  0.3196E+01  0.2774E+02
   7.855  0.3196E+01  0.2775E+02
   7.860  0.3196E+01  0.2777E+02
   7.865  0.3196E+01  0.2779E+02
   7.870  0.3196E+01  0.2780E+02
   7.875  0.3196E+01  0.2782E+02
   7.880  0.3196E+01  0.2783E+02
   7.885  0.3195E+01  0.2785E+02
   7.890  0.3195E+01  0.2787E+02
   7.895  0.3194E+01  0.2788E+02
   7.900  0.3193E+01  0.2790E+02
   7.905  0.3192E+01  0.2791E+02
   7.910  0.3192E+01  0.2793E+02
   7.915  0.3191E+01  0.2795E+02
   7.920  0.3190E+01  0.2796E+02
   7.925  0.3189E+01  0.2798E+02
   7.930  0.3187E+01  0.2799E+02
   7.935  0.3186E+01  0.2801E+02
   7.940  0.3185E+01  0.2803E+02
   7.945  0.3184E+01  0.2804E+02
   7.950  0.3183E+01  0.2806E+02
   7.955  0.3181E+01  0.2807E+02
   7.960  0.3180E+01  0.2809E+02
   7.965  0.3179E+01  0.2810E+02
   7.970  0.3178E+01  0.2812E+02
   7.975  0.3177E+01  0.2814E+02
   7.980  0.3175E+01  0.2815E+02
   7.985  0.3174E+01  0.2817E+02
   7.990  0.3173E+01  0.2818E+02
   7.995  0.3172E+01  0.2820E+02
   8.000  0.3171E+01  0.2822E+02
   8.005  0.3170E+01  0.2823E+02
   8.010  0.3169E+01  0.2825E+02
   8.015  0.3169E+01  0.2826E+02
   8.020  0.3168E+01  0.2828E+02
   8.025  0.3167E+01  0.2829E+02
   8.030  0.3167E+01  0.2831E+02
   8.035  0.3166E+01  0.2833E+02
   8.040  0.3166E+01  0.2834E+02
   8.045  0.3165E+01  0.2836E+02
   8.050  0.3165E+01  0.2837E+02
   8.055  0.3165E+01  0.2839E+02
   8.060  0.3165E+01  0.2841E+02
   8.065  0.3165E+01  0.2842E+02
   8.070  0.3165E+01  0.2844E+02
   8.075  0.3166E+01  0.2845E+02
   8.080  0.3166E+01  0.2847E+02
   8.085  0.3166E+01  0.2848E+02
   8.090  0.3167E+01  0.2850E+02
   8.095  0.3168E+01  0.2852E+02
   8.100  0.3169E+01  0.2853E+02
   8.105  0.3170E+01  0.2855E+02
   8.110  0.3171E+01  0.2856E+02
   8.115  0.3172E+01  0.2858E+02
   8.120  0.3173E+01  0.2860E+02
   8.125  0.3175E+01  0.2861E+02
   8.130  0.3176E+01  0.2863E+02
   8.135  0.3178E+01  0.2864E+02
   8.140  0.3180E+01  0.2866E+02
   8.145  0.3182E+01  0.2868E+02
   8.150  0.3184E+01  0.2869E+02
   8.155  0.3186E+01  0.2871E+02
   8.160  0.3188E+01  0.2872E+02
   8.165  0.3190E+01  0.2874E+02
   8.170  0.3193E+01  0.2875E+02
   8.175  0.3195E+01  0.2877E+02
   8.180  0.3198E+01  0.2879E+02
   8.185  0.3200E+01  0.2880E+02
   8.190  0.3203E+01  0.2882E+02
   8.195  0.3206E+01  0.2883E+02
   8.200  0.3209E+01  0.2885E+02
   8.205  0.3212E+01  0.2887E+02
   8.210  0.3215E+01  0.2888E+02
   8.215  0.3218E+01  0.2890E+02
   8.220  0.3221E+01  0.2892E+02
   8.225  0.3224E+01  0.2893E+02
   8.230  0.3227E+01  0.2895E+02
   8.235  0.3231E+01  0.2896E+02
   8.240  0.3234E+01  0.2898E+02
   8.245  0.3237E+01  0.2900E+02
   8.250  0.3241E+01  0.2901E+02
   8.255  0.3244E+01  0.2903E+02
   8.260  0.3247E+01  0.2904E+02
   8.265  0.3251E+01  0.2906E+02
   8.270  0.3254E+01  0.2908E+02
   8.275  0.3258E+01  0.2909E+02
   8.280  0.3261E+01  0.2911E+02
   8.285  0.3264E+01  0.2913E+02
   8.290  0.3268E+01  0.2914E+02
   8.295  0.3271E+01  0.2916E+02
   8.300  0.3274E+01  0.2918E+02
   8.305  0.3278E+01  0.2919E+02
   8.310  0.3281E+01  0.2921E+02
   8.315  0.3284E+01  0.2922E+02
   8.320  0.3287E+01  0.2924E+02
   8.325  0.3290E+01  0.2926E+02
   8.330  0.3293E+01  0.2927E+02
   8.335  0.3296E+01  0.2929E+02
   8.340  0.3299E+01  0.2931E+02
   8.345  0.3302E+01  0.2932E+02
   8.350  0.3305E+01  0.2934E+02
   8.355  0.3307E+01  0.2936E+02
   8.360  0.3310E+01  0.2937E+02
   8.365  0.3312E+01  0.2939E+02
   8.370  0.3315E+01  0.2941E+02
   8.375  0.3317E+01  0.2942E+02
   8.380  0.3319E+01  0.2944E+02
   8.385  0.3321E+01  0.2946E+02
   8.390  0.3323E+01  0.2947E+02
   8.395  0.3325E+01  0.2949E+02
   8.400  0.3327E+01  0.2951E+02
   8.405  0.3328E+01  0.2952E+02
   8.410  0.3330E+01  0.2954E+02
   8.415  0.3331E+01  0.2956E+02
   8.420  0.3333E+01  0.2957E+02
   8.425  0.3334E+01  0.2959E+02
   8.430  0.3335E+01  0.2961E+02
   8.435  0.3336E+01  0.2962E+02
   8.440  0.3337E+01  0.2964E+02
   8.445  0.3337E+01  0.2966E+02
   8.450  0.3338E+01  0.2967E+02
   8.455  0.3338E+01  0.2969E+02
   8.460  0.3339E+01  0.2971E+02
   8.465  0.3339E+01  0.2972E+02
   8.470  0.3339E+01  0.2974E+02
   8.475  0.3339E+01  0.2976E+02
   8.480  0.3339E+01  0.2977E+02
   8.485  0.3339E+01  0.2979E+02
   8.490  0.3339E+01  0.2981E+02
   8.495  0.3339E+01  0.2982E+02
   8.500  0.3339E+01  0.2984E+02
   8.505  0.3338E+01  0.2986E+02
   8.510  0.3338E+01  0.2987E+02
   8.515  0.3337E+01  0.2989E+02
   8.520  0.3337E+01  0.2991E+02
   8.525  0.3336E+01  0.2992E+02
   8.530  0.3335E+01  0.2994E+02
   8.535  0.3335E+01  0.2996E+02
   8.540  0.3334E+01  0.2997E+02
   8.545  0.3333E+01  0.2999E+02
   8.550  0.3333E+01  0.3001E+02
   8.555  0.3332E+01  0.3002E+02
   8.560  0.3331E+01  0.3004E+02
   8.565  0.3330E+01  0.3006E+02
   8.570  0.3330E+01  0.3007E+02
   8.575  0.3329E+01  0.3009E+02
   8.580  0.3329E+01  0.3011E+02
   8.585  0.3328E+01  0.3012E+02
   8.590  0.3327E+01  0.3014E+02
   8.595  0.3327E+01  0.3016E+02
   8.600  0.3326E+01  0.3017E+02
   8.605  0.3326E+01  0.3019E+02
   8.610  0.3326E+01  0.3021E+02
   8.615  0.3326E+01  0.3022E+02
   8.620  0.3325E+01  0.3024E+02
   8.625  0.3325E+01  0.3026E+02
   8.630  0.3326E+01  0.3027E+02
   8.635  0.3326E+01  0.3029E+02
   8.640  0.3326E+01  0.3031E+02
   8.645  0.3326E+01  0.3032E+02
   8.650  0.3327E+01  0.3034E+02
   8.655  0.3327E+01  0.3036E+02
   8.660  0.3328E+01  0.3037E+02
   8.665  0.3329E+01  0.3039E+02
   8.670  0.3330E+01  0.3041E+02
   8.675  0.3331E+01  0.3042E+02
   8.680  0.3332E+01  0.3044E+02
   8.685  0.3334E+01  0.3046E+02
   8.690  0.3335E+01  0.3047E+02
   8.695  0.3337E+01  0.3049E+02
   8.700  0.3338E+01  0.3051E+02
   8.705  0.3340E+01  0.3052E+02
   8.710  0.3342E+01  0.3054E+02
   8.715  0.3344E+01  0.3056E+02
   8.720  0.3347E+01  0.3057E+02
   8.725  0.3349E+01  0.3059E+02
   8.730  0.3352E+01  0.3061E+02
   8.735  0.3354E+01  0.3062E+02
   8.740  0.3357E+01  0.3064E+02
   8.745  0.3360E+01  0.3066E+02
   8.750  0.3363E+01  0.3067E+02
   8.755  0.3366E+01  0.3069E+02
   8.760  0.3369E+01  0.3071E+02
   8.765  0.3372E+01  0.3072E+02
   8.770  0.3376E+01  0.3074E+02
   8.775  0.3379E+01  0.3076E+02
   8.780  0.3383E+01  0.3077E+02
   8.785  0.3386E+01  0.3079E+02
   8.790  0.3390E+01  0.3081E+02
   8.795  0.3394E+01  0.3083E+02
   8.800  0.3398E+01  0.3084E+02
   8.805  0.3402E+01  0.3086E+02
   8.810  0.3406E+01  0.3088E+02
   8.815  0.3410E+01  0.3089E+02
   8.820  0.3414E+01  0.3091E+02
   8.825  0.3418E+01  0.3093E+02
   8.830  0.3423E+01  0.3094E+02
   8.835  0.3427E+01  0.3096E+02
   8.840  0.3431E+01  0.3098E+02
   8.845  0.3436E+01  0.3100E+02
   8.850  0.3440E+01  0.3101E+02
   8.855  0.3444E+01  0.3103E+02
   8.860  0.3449E+01  0.3105E+02
   8.865  0.3453E+01  0.3106E+02
   8.870  0.3458E+01  0.3108E+02
   8.875  0.3463E+01  0.3110E+02
   8.880  0.3467E+01  0.3112E+02
   8.885  0.3472E+01  0.3113E+02
   8.890  0.3477E+01  0.3115E+02
   8.895  0.3481E+01  0.3117E+02
   8.900  0.3486E+01  0.3119E+02
   8.905  0.3491E+01  0.3120E+02
   8.910  0.3496E+01  0.3122E+02
   8.915  0.3501E+01  0.3124E+02
   8.920  0.3506E+01  0.3126E+02
   8.925  0.3511E+01  0.3127E+02
   8.930  0.3516E+01  0.3129E+02
   8.935  0.3521E+01  0.3131E+02
   8.940  0.3526E+01  0.3133E+02
   8.945  0.3531E+01  0.3134E+02
   8.950  0.3536E+01  0.3136E+02
   8.955  0.3542E+01  0.3138E+02
   8.960  0.3547E+01  0.3140E+02
   8.965  0.3553E+01  0.3142E+02
   8.970  0.3558E+01  0.3143E+02
   8.975  0.3564E+01  0.3145E+02
   8.980  0.3570E+01  0.3147E+02
   8.985  0.3576E+01  0.3149E+02
   8.990  0.3582E+01  0.3150E+02
   8.995  0.3588E+01  0.3152E+02
   9.000  0.3594E+01  0.3154E+02
   9.005  0.3601E+01  0.3156E+02
   9.010  0.3607E+01  0.3158E+02
   9.015  0.3614E+01  0.3159E+02
   9.020  0.3621E+01  0.3161E+02
   9.025  0.3628E+01  0.3163E+02
   9.030  0.3635E+01  0.3165E+02
   9.035  0.3642E+01  0.3167E+02
   9.040  0.3650E+01  0.3169E+02
   9.045  0.3657E+01  0.3170E+02
   9.050  0.3665E+01  0.3172E+02
   9.055  0.3673E+01  0.3174E+02
   9.060  0.3681E+01  0.3176E+02
   9.065  0.3689E+01  0.3178E+02
   9.070  0.3698E+01  0.3180E+02
   9.075  0.3706E+01  0.3181E+02
   9.080  0.3715E+01  0.3183E+02
   9.085  0.3724E+01  0.3185E+02
   9.090  0.3733E+01  0.3187E+02
   9.095  0.3742E+01  0.3189E+02
   9.100  0.3752E+01  0.3191E+02
   9.105  0.3761E+01  0.3193E+02
   9.110  0.3771E+01  0.3195E+02
   9.115  0.3781E+01  0.3196E+02
   9.120  0.3791E+01  0.3198E+02
   9.125  0.3802E+01  0.3200E+02
   9.130  0.3812E+01  0.3202E+02
   9.135  0.3823E+01  0.3204E+02
   9.140  0.3833E+01  0.3206E+02
   9.145  0.3844E+01  0.3208E+02
   9.150  0.3855E+01  0.3210E+02
   9.155  0.3866E+01  0.3212E+02
   9.160  0.3877E+01  0.3214E+02
   9.165  0.3888E+01  0.3216E+02
   9.170  0.3900E+01  0.3218E+02
   9.175  0.3911E+01  0.3220E+02
   9.180  0.3923E+01  0.3221E+02
   9.185  0.3934E+01  0.3223E+02
   9.190  0.3946E+01  0.3225E+02
   9.195  0.3957E+01  0.3227E+02
   9.200  0.3969E+01  0.3229E+02
   9.205  0.3980E+01  0.3231E+02
   9.210  0.3992E+01  0.3233E+02
   9.215  0.4004E+01  0.3235E+02
   9.220  0.4015E+01  0.3237E+02
   9.225  0.4027E+01  0.3239E+02
   9.230  0.4038E+01  0.3241E+02
   9.235  0.4049E+01  0.3243E+02
   9.240  0.4061E+01  0.3245E+02
   9.245  0.4072E+01  0.3247E+02
   9.250  0.4083E+01  0.3250E+02
   9.255  0.4094E+01  0.3252E+02
   9.260  0.4105E+01  0.3254E+02
   9.265  0.4115E+01  0.3256E+02
   9.270  0.4126E+01  0.3258E+02
   9.275  0.4136E+01  0.3260E+02
   9.280  0.4146E+01  0.3262E+02
   9.285  0.4156E+01  0.3264E+02
   9.290  0.4166E+01  0.3266E+02
   9.295  0.4176E+01  0.3268E+02
   9.300  0.4185E+01  0.3270E+02
   9.305  0.4194E+01  0.3272E+02
   9.310  0.4203E+01  0.3274E+02
   9.315  0.4212E+01  0.3277E+02
   9.320  0.4220E+01  0.3279E+02
   9.325  0.4228E+01  0.3281E+02
   9.330  0.4236E+01  0.3283E+02
   9.335  0.4244E+01  0.3285E+02
   9.340  0.4251E+01  0.3287E+02
   9.345  0.4258E+01  0.3289E+02
   9.350  0.4265E+01  0.3291E+02
   9.355  0.4271E+01  0.3294E+02
   9.360  0.4277E+01  0.3296E+02
   9.365  0.4283E+01  0.3298E+02
   9.370  0.4289E+01  0.3300E+02
   9.375  0.4294E+01  0.3302E+02
   9.380  0.4299E+01  0.3304E+02
   9.385  0.4303E+01  0.3306E+02
   9.390  0.4307E+01  0.3309E+02
   9.395  0.4311E+01  0.3311E+02
   9.400  0.4315E+01  0.3313E+02
   9.405  0.4318E+01  0.3315E+02
   9.410  0.4321E+01  0.3317E+02
   9.415  0.4324E+01  0.3319E+02
   9.420  0.4326E+01  0.3322E+02
   9.425  0.4328E+01  0.3324E+02
   9.430  0.4330E+01  0.3326E+02
   9.435  0.4332E+01  0.3328E+02
   9.440  0.4333E+01  0.3330E+02
   9.445  0.4334E+01  0.3332E+02
   9.450  0.4335E+01  0.3335E+02
   9.455  0.4335E+01  0.3337E+02
   9.460  0.4335E+01  0.3339E+02
   9.465  0.4335E+01  0.3341E+02
   9.470  0.4335E+01  0.3343E+02
   9.475  0.4334E+01  0.3345E+02
   9.480  0.4333E+01  0.3348E+02
   9.485  0.4332E+01  0.3350E+02
   9.490  0.4331E+01  0.3352E+02
   9.495  0.4329E+01  0.3354E+02
   9.500  0.4328E+01  0.3356E+02
   9.505  0.4326E+01  0.3358E+02
   9.510  0.4324E+01  0.3361E+02
   9.515  0.4321E+01  0.3363E+02
   9.520  0.4319E+01  0.3365E+02
   9.525  0.4316E+01  0.3367E+02
   9.530  0.4314E+01  0.3369E+02
   9.535  0.4311E+01  0.3371E+02
   9.540  0.4308E+01  0.3373E+02
   9.545  0.4304E+01  0.3376E+02
   9.550  0.4301E+01  0.3378E+02
   9.555  0.4298E+01  0.3380E+02
   9.560  0.4294E+01  0.3382E+02
   9.565  0.4291E+01  0.3384E+02
   9.570  0.4287E+01  0.3386E+02
   9.575  0.4283E+01  0.3388E+02
   9.580  0.4279E+01  0.3391E+02
   9.585  0.4275E+01  0.3393E+02
   9.590  0.4271E+01  0.3395E+02
   9.595  0.4267E+01  0.3397E+02
   9.600  0.4263E+01  0.3399E+02
   9.605  0.4259E+01  0.3401E+02
   9.610  0.4254E+01  0.3403E+02
   9.615  0.4250E+01  0.3406E+02
   9.620  0.4246E+01  0.3408E+02
   9.625  0.4241E+01  0.3410E+02
   9.630  0.4237E+01  0.3412E+02
   9.635  0.4233E+01  0.3414E+02
   9.640  0.4228E+01  0.3416E+02
   9.645  0.4224E+01  0.3418E+02
   9.650  0.4219E+01  0.3420E+02
   9.655  0.4215E+01  0.3422E+02
   9.660  0.4210E+01  0.3425E+02
   9.665  0.4206E+01  0.3427E+02
   9.670  0.4201E+01  0.3429E+02
   9.675  0.4197E+01  0.3431E+02
   9.680  0.4192E+01  0.3433E+02
   9.685  0.4188E+01  0.3435E+02
   9.690  0.4183E+01  0.3437E+02
   9.695  0.4179E+01  0.3439E+02
   9.700  0.4174E+01  0.3441E+02
   9.705  0.4169E+01  0.3443E+02
   9.710  0.4165E+01  0.3445E+02
   9.715  0.4160E+01  0.3448E+02
   9.720  0.4156E+01  0.3450E+02
   9.725  0.4151E+01  0.3452E+02
   9.730  0.4146E+01  0.3454E+02
   9.735  0.4142E+01  0.3456E+02
   9.740  0.4137E+01  0.3458E+02
   9.745  0.4132E+01  0.3460E+02
   9.750  0.4128E+01  0.3462E+02
   9.755  0.4123E+01  0.3464E+02
   9.760  0.4118E+01  0.3466E+02
   9.765  0.4113E+01  0.3468E+02
   9.770  0.4109E+01  0.3470E+02
   9.775  0.4104E+01  0.3472E+02
   9.780  0.4099E+01  0.3474E+02
   9.785  0.4094E+01  0.3476E+02
   9.790  0.4089E+01  0.3478E+02
   9.795  0.4084E+01  0.3481E+02
   9.800  0.4079E+01  0.3483E+02
   9.805  0.4074E+01  0.3485E+02
   9.810  0.4069E+01  0.3487E+02
   9.815  0.4064E+01  0.3489E+02
   9.820  0.4058E+01  0.3491E+02
   9.825  0.4053E+01  0.3493E+02
   9.830  0.4048E+01  0.3495E+02
   9.835  0.4043E+01  0.3497E+02
   9.840  0.4037E+01  0.3499E+02
   9.845  0.4032E+01  0.3501E+02
   9.850  0.4027E+01  0.3503E+02
   9.855  0.4021E+01  0.3505E+02
   9.860  0.4016E+01  0.3507E+02
   9.865  0.4011E+01  0.3509E+02
   9.870  0.4005E+01  0.3511E+02
   9.875  0.4000E+01  0.3513E+02
   9.880  0.3994E+01  0.3515E+02
   9.885  0.3989E+01  0.3517E+02
   9.890  0.3983E+01  0.3519E+02
   9.895  0.3978E+01  0.3521E+02
   9.900  0.3972E+01  0.3523E+02
   9.905  0.3967E+01  0.3525E+02
   9.910  0.3961E+01  0.3527E+02
   9.915  0.3956E+01  0.3529E+02
   9.920  0.3951E+01  0.3531E+02
   9.925  0.3945E+01  0.3533E+02
   9.930  0.3940E+01  0.3535E+02
   9.935  0.3935E+01  0.3537E+02
   9.940  0.3930E+01  0.3539E+02
   9.945  0.3924E+01  0.3541E+02
   9.950  0.3919E+01  0.3543E+02
   9.955  0.3915E+01  0.3544E+02
   9.960  0.3910E+01  0.3546E+02
   9.965  0.3905E+01  0.3548E+02
   9.970  0.3901E+01  0.3550E+02
   9.975  0.3896E+01  0.3552E+02
   9.980  0.3892E+01  0.3554E+02
   9.985  0.3888E+01  0.3556E+02
   9.990  0.3884E+01  0.3558E+02
   9.995  0.3880E+01  0.3560E+02
  10.000  0.3876E+01  0.3562E+02
